# ACE/gr parameter file
#
@version 40102
@page layout free
@ps linewidth begin 1
@ps linewidth increment 2
@hardcopy device 1
@page 5
@page inout 5
@link page off
@default linestyle 1
@default linewidth 1
@default color 1
@default char size 1.000000
@default font 4
@default font source 0
@default symbol size 1.000000
@timestamp off
@timestamp 0.03, 0.03
@timestamp linewidth 1
@timestamp color 1
@timestamp rot 0
@timestamp font 4
@timestamp char size 1.000000
@timestamp def "Sat Jun  5 16:28:31 1999"
@with g0
@g0 on
@g0 label off
@g0 hidden false
@g0 type xy
@g0 autoscale type AUTO
@g0 fixedpoint off
@g0 fixedpoint type 0
@g0 fixedpoint xy 0.000000, 0.000000
@g0 fixedpoint format general general
@g0 fixedpoint prec 6, 6
@    world xmin 0
@    world xmax 10000
@    world ymin -4
@    world ymax 6
@    stack world 0, 0, 0, 0 tick 0, 0, 0, 0
@    view xmin 0.150000
@    view xmax 0.850000
@    view ymin 0.150000
@    view ymax 0.850000
@    title "quartet sigma state molecule"
@    title font 4
@    title size 1.500000
@    title color 1
@    title linewidth 1
@    subtitle "D = +0.40 cm-1, gxx=gyy=gzz=ge, v = 9.3 GHz"
@    subtitle font 4
@    subtitle size 1.000000
@    subtitle color 1
@    subtitle linewidth 1
@    s0 symbol 0
@    s0 symbol size 1.000000
@    s0 symbol fill 0
@    s0 symbol color -1
@    s0 symbol linewidth 1
@    s0 symbol linestyle 1
@    s0 symbol center false
@    s0 symbol char 0
@    s0 skip 0
@    s0 linestyle 1
@    s0 linewidth 1
@    s0 color 1
@    s0 fill 0
@    s0 fill with color
@    s0 fill color 1
@    s0 fill pattern 0
@    s0 errorbar type BOTH
@    s0 errorbar length 1.000000
@    s0 errorbar linewidth 1
@    s0 errorbar linestyle 1
@    s0 errorbar riser on
@    s0 errorbar riser linewidth 1
@    s0 errorbar riser linestyle 1
@    s0 xyz 0.000000, 0.000000
@    s0 comment "/tmp/101.0"
@    xaxis  tick on
@    xaxis  tick major 2000
@    xaxis  tick minor 1000
@    xaxis  tick offsetx 0.000000
@    xaxis  tick offsety 0.000000
@    xaxis  label "Field / Gauss"
@    xaxis  label layout para
@    xaxis  label place auto
@    xaxis  label char size 1.000000
@    xaxis  label font 4
@    xaxis  label color 1
@    xaxis  label linewidth 1
@    xaxis  ticklabel on
@    xaxis  ticklabel type auto
@    xaxis  ticklabel prec 5
@    xaxis  ticklabel format general
@    xaxis  ticklabel append ""
@    xaxis  ticklabel prepend ""
@    xaxis  ticklabel layout horizontal
@    xaxis  ticklabel place on ticks
@    xaxis  ticklabel skip 0
@    xaxis  ticklabel stagger 0
@    xaxis  ticklabel op bottom
@    xaxis  ticklabel sign normal
@    xaxis  ticklabel start type auto
@    xaxis  ticklabel start 0.000000
@    xaxis  ticklabel stop type auto
@    xaxis  ticklabel stop 0.000000
@    xaxis  ticklabel char size 1.000000
@    xaxis  ticklabel font 4
@    xaxis  ticklabel color 1
@    xaxis  ticklabel linewidth 1
@    xaxis  tick major on
@    xaxis  tick minor on
@    xaxis  tick default 6
@    xaxis  tick in
@    xaxis  tick major color 1
@    xaxis  tick major linewidth 1
@    xaxis  tick major linestyle 1
@    xaxis  tick minor color 1
@    xaxis  tick minor linewidth 1
@    xaxis  tick minor linestyle 1
@    xaxis  tick log off
@    xaxis  tick size 1.000000
@    xaxis  tick minor size 0.500000
@    xaxis  bar off
@    xaxis  bar color 1
@    xaxis  bar linestyle 1
@    xaxis  bar linewidth 1
@    xaxis  tick major grid off
@    xaxis  tick minor grid off
@    xaxis  tick op both
@    xaxis  tick type auto
@    xaxis  tick spec 0
@    yaxis  tick on
@    yaxis  tick major 2
@    yaxis  tick minor 1
@    yaxis  tick offsetx 0.000000
@    yaxis  tick offsety 0.000000
@    yaxis  label "Intensity / Arb."
@    yaxis  label layout para
@    yaxis  label place auto
@    yaxis  label char size 1.000000
@    yaxis  label font 4
@    yaxis  label color 1
@    yaxis  label linewidth 1
@    yaxis  ticklabel on
@    yaxis  ticklabel type auto
@    yaxis  ticklabel prec 5
@    yaxis  ticklabel format general
@    yaxis  ticklabel append ""
@    yaxis  ticklabel prepend ""
@    yaxis  ticklabel layout horizontal
@    yaxis  ticklabel place on ticks
@    yaxis  ticklabel skip 0
@    yaxis  ticklabel stagger 0
@    yaxis  ticklabel op left
@    yaxis  ticklabel sign normal
@    yaxis  ticklabel start type auto
@    yaxis  ticklabel start 0.000000
@    yaxis  ticklabel stop type auto
@    yaxis  ticklabel stop 0.000000
@    yaxis  ticklabel char size 1.000000
@    yaxis  ticklabel font 4
@    yaxis  ticklabel color 1
@    yaxis  ticklabel linewidth 1
@    yaxis  tick major on
@    yaxis  tick minor on
@    yaxis  tick default 6
@    yaxis  tick in
@    yaxis  tick major color 1
@    yaxis  tick major linewidth 1
@    yaxis  tick major linestyle 1
@    yaxis  tick minor color 1
@    yaxis  tick minor linewidth 1
@    yaxis  tick minor linestyle 1
@    yaxis  tick log off
@    yaxis  tick size 1.000000
@    yaxis  tick minor size 0.500000
@    yaxis  bar off
@    yaxis  bar color 1
@    yaxis  bar linestyle 1
@    yaxis  bar linewidth 1
@    yaxis  tick major grid off
@    yaxis  tick minor grid off
@    yaxis  tick op both
@    yaxis  tick type auto
@    yaxis  tick spec 0
@    zeroxaxis  tick on
@    zeroxaxis  tick major 2000
@    zeroxaxis  tick minor 1000
@    zeroxaxis  tick offsetx 0.000000
@    zeroxaxis  tick offsety 0.000000
@    zeroxaxis  label ""
@    zeroxaxis  label layout para
@    zeroxaxis  label place auto
@    zeroxaxis  label char size 1.000000
@    zeroxaxis  label font 4
@    zeroxaxis  label color 1
@    zeroxaxis  label linewidth 1
@    zeroxaxis  ticklabel off
@    zeroxaxis  ticklabel type auto
@    zeroxaxis  ticklabel prec 5
@    zeroxaxis  ticklabel format general
@    zeroxaxis  ticklabel append ""
@    zeroxaxis  ticklabel prepend ""
@    zeroxaxis  ticklabel layout horizontal
@    zeroxaxis  ticklabel place on ticks
@    zeroxaxis  ticklabel skip 0
@    zeroxaxis  ticklabel stagger 0
@    zeroxaxis  ticklabel op bottom
@    zeroxaxis  ticklabel sign normal
@    zeroxaxis  ticklabel start type auto
@    zeroxaxis  ticklabel start 0.000000
@    zeroxaxis  ticklabel stop type auto
@    zeroxaxis  ticklabel stop 0.000000
@    zeroxaxis  ticklabel char size 1.000000
@    zeroxaxis  ticklabel font 4
@    zeroxaxis  ticklabel color 1
@    zeroxaxis  ticklabel linewidth 1
@    zeroxaxis  tick major off
@    zeroxaxis  tick minor on
@    zeroxaxis  tick default 6
@    zeroxaxis  tick in
@    zeroxaxis  tick major color 1
@    zeroxaxis  tick major linewidth 1
@    zeroxaxis  tick major linestyle 1
@    zeroxaxis  tick minor color 1
@    zeroxaxis  tick minor linewidth 1
@    zeroxaxis  tick minor linestyle 1
@    zeroxaxis  tick log off
@    zeroxaxis  tick size 1.000000
@    zeroxaxis  tick minor size 0.500000
@    zeroxaxis  bar off
@    zeroxaxis  bar color 1
@    zeroxaxis  bar linestyle 1
@    zeroxaxis  bar linewidth 1
@    zeroxaxis  tick major grid off
@    zeroxaxis  tick minor grid off
@    zeroxaxis  tick op both
@    zeroxaxis  tick type auto
@    zeroxaxis  tick spec 0
@    zeroyaxis  tick on
@    zeroyaxis  tick major 2
@    zeroyaxis  tick minor 1
@    zeroyaxis  tick offsetx 0.000000
@    zeroyaxis  tick offsety 0.000000
@    zeroyaxis  label ""
@    zeroyaxis  label layout para
@    zeroyaxis  label place auto
@    zeroyaxis  label char size 1.000000
@    zeroyaxis  label font 4
@    zeroyaxis  label color 1
@    zeroyaxis  label linewidth 1
@    zeroyaxis  ticklabel off
@    zeroyaxis  ticklabel type auto
@    zeroyaxis  ticklabel prec 5
@    zeroyaxis  ticklabel format general
@    zeroyaxis  ticklabel append ""
@    zeroyaxis  ticklabel prepend ""
@    zeroyaxis  ticklabel layout horizontal
@    zeroyaxis  ticklabel place on ticks
@    zeroyaxis  ticklabel skip 0
@    zeroyaxis  ticklabel stagger 0
@    zeroyaxis  ticklabel op left
@    zeroyaxis  ticklabel sign normal
@    zeroyaxis  ticklabel start type auto
@    zeroyaxis  ticklabel start 0.000000
@    zeroyaxis  ticklabel stop type auto
@    zeroyaxis  ticklabel stop 0.000000
@    zeroyaxis  ticklabel char size 1.000000
@    zeroyaxis  ticklabel font 4
@    zeroyaxis  ticklabel color 1
@    zeroyaxis  ticklabel linewidth 1
@    zeroyaxis  tick major off
@    zeroyaxis  tick minor on
@    zeroyaxis  tick default 6
@    zeroyaxis  tick in
@    zeroyaxis  tick major color 1
@    zeroyaxis  tick major linewidth 1
@    zeroyaxis  tick major linestyle 1
@    zeroyaxis  tick minor color 1
@    zeroyaxis  tick minor linewidth 1
@    zeroyaxis  tick minor linestyle 1
@    zeroyaxis  tick log off
@    zeroyaxis  tick size 1.000000
@    zeroyaxis  tick minor size 0.500000
@    zeroyaxis  bar off
@    zeroyaxis  bar color 1
@    zeroyaxis  bar linestyle 1
@    zeroyaxis  bar linewidth 1
@    zeroyaxis  tick major grid off
@    zeroyaxis  tick minor grid off
@    zeroyaxis  tick op both
@    zeroyaxis  tick type auto
@    zeroyaxis  tick spec 0
@    legend off
@    legend loctype view
@    legend layout 0
@    legend vgap 2
@    legend hgap 1
@    legend length 4
@    legend box off
@    legend box fill off
@    legend box fill with color
@    legend box fill color 0
@    legend box fill pattern 1
@    legend box color 1
@    legend box linewidth 1
@    legend box linestyle 1
@    legend x1 0.8
@    legend y1 0.8
@    legend font 4
@    legend char size 1.000000
@    legend linestyle 1
@    legend linewidth 1
@    legend color 1
@    frame on
@    frame type 0
@    frame linestyle 1
@    frame linewidth 1
@    frame color 1
@    frame fill off
@    frame background color 0
@WITH G0
@G0 ON
@TARGET S0
@TYPE xy
               0        -0.016707
         2.03231        -0.015916
         4.06463        -0.014905
         6.09694        -0.013783
         8.12925         -0.01263
         10.1616        -0.011498
         12.1939        -0.010421
         14.2262        -0.009418
         16.2585        -0.008496
         18.2908        -0.007659
         20.3231        -0.006903
         22.3554        -0.006225
         24.3878        -0.005618
         26.4201        -0.005075
         28.4524        -0.004591
         30.4847        -0.004159
          32.517        -0.003773
         34.5493        -0.003428
         36.5816         -0.00312
         38.6139        -0.002844
         40.6463        -0.002596
         42.6786        -0.002374
         44.7109        -0.002173
         46.7432        -0.001993
         48.7755         -0.00183
         50.8078        -0.001683
         52.8401        -0.001549
         54.8724        -0.001428
         56.9048        -0.001317
         58.9371        -0.001217
         60.9694        -0.001125
         63.0017        -0.001041
          65.034        -0.000964
         67.0663        -0.000893
         69.0986        -0.000828
         71.1309        -0.000769
         73.1633        -0.000714
         75.1956        -0.000663
         77.2279        -0.000616
         79.2602        -0.000572
         81.2925        -0.000532
         83.3248        -0.000495
         85.3571         -0.00046
         87.3894        -0.000427
         89.4218        -0.000397
         91.4541        -0.000369
         93.4864        -0.000342
         95.5187        -0.000318
          97.551        -0.000295
         99.5833        -0.000273
         101.616        -0.000252
         103.648        -0.000233
          105.68        -0.000215
         107.713        -0.000198
         109.745        -0.000182
         111.777        -0.000167
          113.81        -0.000153
         115.842        -0.000139
         117.874        -0.000126
         119.906        -0.000114
         121.939        -0.000103
         123.971         -9.2e-05
         126.003         -8.1e-05
         128.036         -7.2e-05
         130.068         -6.2e-05
           132.1         -5.3e-05
         134.133         -4.5e-05
         136.165         -3.6e-05
         138.197         -2.9e-05
          140.23         -2.1e-05
         142.262         -1.4e-05
         144.294           -7e-06
         146.327           -1e-06
         148.359            6e-06
         150.391          1.2e-05
         152.423          1.8e-05
         154.456          2.3e-05
         156.488          2.9e-05
          158.52          3.4e-05
         160.553          3.9e-05
         162.585          4.4e-05
         164.617          4.8e-05
          166.65          5.3e-05
         168.682          5.7e-05
         170.714          6.1e-05
         172.747          6.5e-05
         174.779          6.9e-05
         176.811          7.3e-05
         178.844          7.7e-05
         180.876            8e-05
         182.908          8.4e-05
          184.94          8.7e-05
         186.973            9e-05
         189.005          9.4e-05
         191.037          9.7e-05
          193.07           0.0001
         195.102         0.000103
         197.134         0.000105
         199.167         0.000108
         201.199         0.000111
         203.231         0.000114
         205.264         0.000116
         207.296         0.000119
         209.328         0.000121
         211.361         0.000124
         213.393         0.000126
         215.425         0.000129
         217.457         0.000131
          219.49         0.000133
         221.522         0.000135
         223.554         0.000138
         225.587          0.00014
         227.619         0.000142
         229.651         0.000144
         231.684         0.000146
         233.716         0.000148
         235.748          0.00015
         237.781         0.000152
         239.813         0.000154
         241.845         0.000156
         243.878         0.000158
          245.91         0.000159
         247.942         0.000161
         249.974         0.000163
         252.007         0.000165
         254.039         0.000167
         256.071         0.000168
         258.104          0.00017
         260.136         0.000172
         262.168         0.000173
         264.201         0.000175
         266.233         0.000177
         268.265         0.000178
         270.298          0.00018
          272.33         0.000182
         274.362         0.000183
         276.395         0.000185
         278.427         0.000186
         280.459         0.000188
         282.491          0.00019
         284.524         0.000191
         286.556         0.000193
         288.588         0.000194
         290.621         0.000196
         292.653         0.000197
         294.685         0.000199
         296.718           0.0002
          298.75         0.000202
         300.782         0.000203
         302.815         0.000205
         304.847         0.000206
         306.879         0.000208
         308.912         0.000209
         310.944         0.000211
         312.976         0.000212
         315.008         0.000214
         317.041         0.000215
         319.073         0.000216
         321.105         0.000218
         323.138         0.000219
          325.17         0.000221
         327.202         0.000222
         329.235         0.000224
         331.267         0.000225
         333.299         0.000227
         335.332         0.000228
         337.364         0.000229
         339.396         0.000231
         341.429         0.000232
         343.461         0.000234
         345.493         0.000235
         347.525         0.000237
         349.558         0.000238
          351.59         0.000239
         353.622         0.000241
         355.655         0.000242
         357.687         0.000244
         359.719         0.000245
         361.752         0.000247
         363.784         0.000248
         365.816         0.000249
         367.849         0.000251
         369.881         0.000252
         371.913         0.000254
         373.946         0.000255
         375.978         0.000257
          378.01         0.000258
         380.042         0.000259
         382.075         0.000261
         384.107         0.000262
         386.139         0.000264
         388.172         0.000265
         390.204         0.000267
         392.236         0.000268
         394.269          0.00027
         396.301         0.000271
         398.333         0.000273
         400.366         0.000274
         402.398         0.000276
          404.43         0.000277
         406.463         0.000279
         408.495          0.00028
         410.527         0.000282
         412.559         0.000283
         414.592         0.000285
         416.624         0.000286
         418.656         0.000288
         420.689         0.000289
         422.721         0.000291
         424.753         0.000292
         426.786         0.000294
         428.818         0.000295
          430.85         0.000297
         432.883         0.000298
         434.915           0.0003
         436.947         0.000302
          438.98         0.000303
         441.012         0.000305
         443.044         0.000306
         445.076         0.000308
         447.109          0.00031
         449.141         0.000311
         451.173         0.000313
         453.206         0.000314
         455.238         0.000316
          457.27         0.000318
         459.303         0.000319
         461.335         0.000321
         463.367         0.000323
           465.4         0.000324
         467.432         0.000326
         469.464         0.000328
         471.497         0.000329
         473.529         0.000331
         475.561         0.000333
         477.593         0.000334
         479.626         0.000336
         481.658         0.000338
          483.69          0.00034
         485.723         0.000341
         487.755         0.000343
         489.787         0.000345
          491.82         0.000347
         493.852         0.000348
         495.884          0.00035
         497.917         0.000352
         499.949         0.000354
         501.981         0.000356
         504.014         0.000357
         506.046         0.000359
         508.078         0.000361
          510.11         0.000363
         512.143         0.000365
         514.175         0.000367
         516.207         0.000369
          518.24          0.00037
         520.272         0.000372
         522.304         0.000374
         524.337         0.000376
         526.369         0.000378
         528.401          0.00038
         530.434         0.000382
         532.466         0.000384
         534.498         0.000386
         536.531         0.000388
         538.563          0.00039
         540.595         0.000392
         542.627         0.000394
          544.66         0.000396
         546.692         0.000398
         548.724           0.0004
         550.757         0.000402
         552.789         0.000404
         554.821         0.000406
         556.854         0.000408
         558.886          0.00041
         560.918         0.000412
         562.951         0.000415
         564.983         0.000417
         567.015         0.000419
         569.048         0.000421
          571.08         0.000423
         573.112         0.000425
         575.144         0.000428
         577.177          0.00043
         579.209         0.000432
         581.241         0.000434
         583.274         0.000437
         585.306         0.000439
         587.338         0.000441
         589.371         0.000443
         591.403         0.000446
         593.435         0.000448
         595.468          0.00045
           597.5         0.000453
         599.532         0.000455
         601.565         0.000457
         603.597          0.00046
         605.629         0.000462
         607.661         0.000465
         609.694         0.000467
         611.726          0.00047
         613.758         0.000472
         615.791         0.000474
         617.823         0.000477
         619.855          0.00048
         621.888         0.000482
          623.92         0.000485
         625.952         0.000487
         627.985          0.00049
         630.017         0.000492
         632.049         0.000495
         634.082         0.000498
         636.114           0.0005
         638.146         0.000503
         640.178         0.000506
         642.211         0.000508
         644.243         0.000511
         646.275         0.000514
         648.308         0.000516
          650.34         0.000519
         652.372         0.000522
         654.405         0.000525
         656.437         0.000528
         658.469         0.000531
         660.502         0.000533
         662.534         0.000536
         664.566         0.000539
         666.599         0.000542
         668.631         0.000545
         670.663         0.000548
         672.695         0.000551
         674.728         0.000554
          676.76         0.000557
         678.792          0.00056
         680.825         0.000563
         682.857         0.000566
         684.889         0.000569
         686.922         0.000572
         688.954         0.000576
         690.986         0.000579
         693.019         0.000582
         695.051         0.000585
         697.083         0.000588
         699.116         0.000592
         701.148         0.000595
          703.18         0.000598
         705.213         0.000602
         707.245         0.000605
         709.277         0.000608
         711.309         0.000612
         713.342         0.000615
         715.374         0.000618
         717.406         0.000622
         719.439         0.000625
         721.471         0.000629
         723.503         0.000633
         725.536         0.000636
         727.568          0.00064
           729.6         0.000643
         731.633         0.000647
         733.665         0.000651
         735.697         0.000654
          737.73         0.000658
         739.762         0.000662
         741.794         0.000666
         743.826         0.000669
         745.859         0.000673
         747.891         0.000677
         749.923         0.000681
         751.956         0.000685
         753.988         0.000689
          756.02         0.000693
         758.053         0.000697
         760.085         0.000701
         762.117         0.000705
          764.15         0.000709
         766.182         0.000713
         768.214         0.000717
         770.247         0.000722
         772.279         0.000726
         774.311          0.00073
         776.343         0.000734
         778.376         0.000739
         780.408         0.000743
          782.44         0.000748
         784.473         0.000752
         786.505         0.000756
         788.537         0.000761
          790.57         0.000765
         792.602          0.00077
         794.634         0.000775
         796.667         0.000779
         798.699         0.000784
         800.731         0.000789
         802.764         0.000793
         804.796         0.000798
         806.828         0.000803
          808.86         0.000808
         810.893         0.000813
         812.925         0.000818
         814.957         0.000823
          816.99         0.000828
         819.022         0.000833
         821.054         0.000838
         823.087         0.000843
         825.119         0.000848
         827.151         0.000854
         829.184         0.000859
         831.216         0.000864
         833.248          0.00087
         835.281         0.000875
         837.313          0.00088
         839.345         0.000886
         841.377         0.000891
          843.41         0.000897
         845.442         0.000903
         847.474         0.000908
         849.507         0.000914
         851.539          0.00092
         853.571         0.000926
         855.604         0.000932
         857.636         0.000938
         859.668         0.000943
         861.701          0.00095
         863.733         0.000956
         865.765         0.000962
         867.798         0.000968
          869.83         0.000974
         871.862          0.00098
         873.894         0.000987
         875.927         0.000993
         877.959            0.001
         879.991         0.001006
         882.024         0.001013
         884.056         0.001019
         886.088         0.001026
         888.121         0.001033
         890.153          0.00104
         892.185         0.001046
         894.218         0.001053
          896.25          0.00106
         898.282         0.001067
         900.315         0.001075
         902.347         0.001082
         904.379         0.001089
         906.411         0.001096
         908.444         0.001104
         910.476         0.001111
         912.508         0.001119
         914.541         0.001126
         916.573         0.001134
         918.605         0.001142
         920.638         0.001149
          922.67         0.001157
         924.702         0.001165
         926.735         0.001173
         928.767         0.001181
         930.799         0.001189
         932.832         0.001198
         934.864         0.001206
         936.896         0.001214
         938.928         0.001223
         940.961         0.001231
         942.993          0.00124
         945.025         0.001249
         947.058         0.001258
          949.09         0.001266
         951.122         0.001275
         953.155         0.001285
         955.187         0.001294
         957.219         0.001303
         959.252         0.001312
         961.284         0.001322
         963.316         0.001331
         965.349         0.001341
         967.381         0.001351
         969.413          0.00136
         971.445          0.00137
         973.478          0.00138
          975.51          0.00139
         977.542         0.001401
         979.575         0.001411
         981.607         0.001421
         983.639         0.001432
         985.672         0.001443
         987.704         0.001453
         989.736         0.001464
         991.769         0.001475
         993.801         0.001486
         995.833         0.001497
         997.866         0.001509
         999.898          0.00152
         1001.93         0.001532
         1003.96         0.001543
         1005.99         0.001555
         1008.03         0.001567
         1010.06         0.001579
         1012.09         0.001592
         1014.12         0.001604
         1016.16         0.001616
         1018.19         0.001629
         1020.22         0.001642
         1022.25         0.001655
         1024.29         0.001668
         1026.32         0.001681
         1028.35         0.001695
         1030.38         0.001708
         1032.41         0.001722
         1034.45         0.001736
         1036.48          0.00175
         1038.51         0.001764
         1040.54         0.001778
         1042.58         0.001793
         1044.61         0.001808
         1046.64         0.001823
         1048.67         0.001838
         1050.71         0.001853
         1052.74         0.001869
         1054.77         0.001885
          1056.8         0.001901
         1058.83         0.001917
         1060.87         0.001933
          1062.9          0.00195
         1064.93         0.001967
         1066.96         0.001984
            1069         0.002002
         1071.03         0.002019
         1073.06         0.002037
         1075.09         0.002056
         1077.13         0.002074
         1079.16         0.002093
         1081.19         0.002113
         1083.22         0.002132
         1085.25         0.002153
         1087.29         0.002173
         1089.32         0.002194
         1091.35         0.002216
         1093.38         0.002238
         1095.42          0.00226
         1097.45         0.002283
         1099.48         0.002307
         1101.51         0.002331
         1103.55         0.002356
         1105.58         0.002381
         1107.61         0.002407
         1109.64         0.002434
         1111.68         0.002461
         1113.71         0.002489
         1115.74         0.002517
         1117.77         0.002546
          1119.8         0.002575
         1121.84         0.002605
         1123.87         0.002635
          1125.9         0.002665
         1127.93         0.002696
         1129.97         0.002727
            1132         0.002758
         1134.03          0.00279
         1136.06         0.002822
          1138.1         0.002854
         1140.13         0.002886
         1142.16         0.002918
         1144.19          0.00295
         1146.22         0.002983
         1148.26         0.003016
         1150.29         0.003049
         1152.32         0.003082
         1154.35         0.003116
         1156.39          0.00315
         1158.42         0.003184
         1160.45         0.003218
         1162.48         0.003253
         1164.52         0.003288
         1166.55         0.003323
         1168.58         0.003359
         1170.61         0.003395
         1172.64         0.003431
         1174.68         0.003467
         1176.71         0.003504
         1178.74          0.00354
         1180.77         0.003577
         1182.81         0.003614
         1184.84         0.003652
         1186.87          0.00369
          1188.9         0.003728
         1190.94         0.003766
         1192.97         0.003804
            1195         0.003841
         1197.03         0.003878
         1199.06         0.003914
          1201.1          0.00395
         1203.13         0.003986
         1205.16         0.004023
         1207.19         0.004061
         1209.23           0.0041
         1211.26          0.00414
         1213.29         0.004181
         1215.32         0.004222
         1217.36         0.004265
         1219.39         0.004307
         1221.42          0.00435
         1223.45         0.004393
         1225.48         0.004437
         1227.52         0.004482
         1229.55         0.004529
         1231.58         0.004577
         1233.61         0.004626
         1235.65         0.004677
         1237.68         0.004728
         1239.71          0.00478
         1241.74         0.004831
         1243.78         0.004882
         1245.81         0.004932
         1247.84         0.004982
         1249.87         0.005031
          1251.9          0.00508
         1253.94          0.00513
         1255.97         0.005181
            1258         0.005233
         1260.03         0.005286
         1262.07         0.005341
          1264.1         0.005397
         1266.13         0.005455
         1268.16         0.005514
          1270.2         0.005574
         1272.23         0.005635
         1274.26         0.005696
         1276.29         0.005757
         1278.32         0.005819
         1280.36         0.005881
         1282.39         0.005944
         1284.42         0.006008
         1286.45         0.006075
         1288.49         0.006144
         1290.52         0.006215
         1292.55         0.006287
         1294.58         0.006359
         1296.62         0.006432
         1298.65         0.006504
         1300.68         0.006577
         1302.71          0.00665
         1304.74         0.006723
         1306.78         0.006796
         1308.81         0.006869
         1310.84         0.006942
         1312.87         0.007017
         1314.91         0.007094
         1316.94         0.007174
         1318.97         0.007259
            1321         0.007347
         1323.04         0.007439
         1325.07         0.007535
          1327.1         0.007633
         1329.13         0.007733
         1331.16         0.007835
          1333.2         0.007937
         1335.23          0.00804
         1337.26         0.008144
         1339.29         0.008248
         1341.33         0.008352
         1343.36         0.008457
         1345.39         0.008563
         1347.42         0.008669
         1349.46         0.008777
         1351.49         0.008887
         1353.52         0.008999
         1355.55         0.009115
         1357.58         0.009235
         1359.62         0.009358
         1361.65         0.009485
         1363.68         0.009615
         1365.71         0.009747
         1367.75          0.00988
         1369.78         0.010015
         1371.81         0.010151
         1373.84         0.010288
         1375.88         0.010426
         1377.91         0.010565
         1379.94         0.010706
         1381.97          0.01085
            1384         0.010999
         1386.04         0.011154
         1388.07         0.011317
          1390.1         0.011487
         1392.13         0.011666
         1394.17         0.011852
          1396.2         0.012044
         1398.23         0.012242
         1400.26         0.012444
          1402.3         0.012651
         1404.33         0.012861
         1406.36         0.013074
         1408.39         0.013291
         1410.43         0.013511
         1412.46         0.013735
         1414.49         0.013962
         1416.52         0.014192
         1418.55         0.014426
         1420.59         0.014664
         1422.62         0.014906
         1424.65         0.015152
         1426.68         0.015403
         1428.72         0.015657
         1430.75         0.015916
         1432.78          0.01618
         1434.81         0.016448
         1436.85         0.016721
         1438.88         0.016999
         1440.91         0.017283
         1442.94         0.017573
         1444.97          0.01787
         1447.01         0.018174
         1449.04         0.018488
         1451.07         0.018812
          1453.1         0.019148
         1455.14         0.019499
         1457.17         0.019866
          1459.2         0.020248
         1461.23         0.020645
         1463.27         0.021057
          1465.3         0.021479
         1467.33         0.021911
         1469.36         0.022351
         1471.39         0.022799
         1473.43         0.023257
         1475.46         0.023726
         1477.49         0.024207
         1479.52         0.024701
         1481.56         0.025207
         1483.59         0.025725
         1485.62         0.026255
         1487.65         0.026797
         1489.69         0.027355
         1491.72         0.027929
         1493.75         0.028523
         1495.78         0.029139
         1497.81         0.029779
         1499.85         0.030442
         1501.88          0.03113
         1503.91         0.031842
         1505.94         0.032581
         1507.98         0.033347
         1510.01         0.034142
         1512.04         0.034965
         1514.07         0.035813
         1516.11         0.036687
         1518.14         0.037585
         1520.17         0.038508
          1522.2         0.039458
         1524.23         0.040438
         1526.27         0.041452
          1528.3         0.042502
         1530.33          0.04359
         1532.36         0.044718
          1534.4         0.045887
         1536.43         0.047096
         1538.46         0.048345
         1540.49         0.049638
         1542.53         0.050976
         1544.56         0.052366
         1546.59         0.053813
         1548.62         0.055321
         1550.65         0.056895
         1552.69         0.058536
         1554.72         0.060249
         1556.75         0.062035
         1558.78         0.063897
         1560.82         0.065839
         1562.85         0.067863
         1564.88         0.069973
         1566.91         0.072171
         1568.95         0.074463
         1570.98         0.076853
         1573.01         0.079349
         1575.04         0.081957
         1577.07         0.084682
         1579.11         0.087532
         1581.14         0.090512
         1583.17         0.093632
          1585.2         0.096899
         1587.24         0.100325
         1589.27         0.103919
          1591.3         0.107692
         1593.33         0.111655
         1595.37          0.11582
          1597.4         0.120199
         1599.43         0.124808
         1601.46         0.129663
         1603.49         0.134782
         1605.53         0.140185
         1607.56         0.145889
         1609.59         0.151918
         1611.62         0.158296
         1613.66          0.16505
         1615.69         0.172212
         1617.72         0.179814
         1619.75         0.187891
         1621.79          0.19648
         1623.82         0.205619
         1625.85         0.215351
         1627.88         0.225722
         1629.91         0.236781
         1631.95         0.248587
         1633.98           0.2612
         1636.01         0.274693
         1638.04         0.289144
         1640.08         0.304644
         1642.11         0.321294
         1644.14         0.339208
         1646.17         0.358509
         1648.21         0.379337
         1650.24          0.40184
         1652.27         0.426184
          1654.3         0.452554
         1656.33         0.481161
         1658.37         0.512243
          1660.4         0.546072
         1662.43         0.582956
         1664.46         0.623242
          1666.5         0.667319
         1668.53         0.715626
         1670.56         0.768661
         1672.59         0.826989
         1674.63         0.891258
         1676.66         0.962204
         1678.69          1.04066
         1680.72          1.12759
         1682.75          1.22404
         1684.79          1.33123
         1686.82          1.45051
         1688.85          1.58337
         1690.88          1.73149
         1692.92          1.89667
         1694.95          2.08085
         1696.98          2.28601
         1699.01           2.5141
         1701.05          2.76688
         1703.08          3.04563
         1705.11           3.3508
         1707.14          3.68147
         1709.17           4.0346
         1711.21          4.40406
         1713.24          4.77956
         1715.27          5.14545
          1717.3          5.47979
         1719.34          5.75424
         1721.37          5.93534
          1723.4          5.98779
         1725.43          5.88017
         1727.47          5.59216
          1729.5          5.12142
         1731.53          4.48749
         1733.56          3.73037
          1735.6          2.90362
         1737.63          2.06422
         1739.66          1.26279
         1741.69         0.537025
         1743.72        -0.090619
         1745.76        -0.611675
         1747.79         -1.02856
         1749.82         -1.35092
         1751.85         -1.59223
         1753.89         -1.76709
         1755.92         -1.88916
         1757.95         -1.97005
         1759.98         -2.01879
         1762.02         -2.04213
         1764.05         -2.04508
         1766.08         -2.03163
         1768.11         -2.00528
         1770.14          -1.9692
         1772.18         -1.92624
         1774.21          -1.8787
         1776.24         -1.82826
         1778.27         -1.77605
         1780.31         -1.72286
         1782.34         -1.66938
         1784.37         -1.61641
          1786.4         -1.56483
         1788.44         -1.51538
         1790.47         -1.46849
          1792.5         -1.42406
         1794.53         -1.38146
         1796.56         -1.33964
          1798.6         -1.29743
         1800.63         -1.25384
         1802.66          -1.2084
         1804.69         -1.16132
         1806.73         -1.11341
         1808.76         -1.06588
         1810.79         -1.02008
         1812.82        -0.977297
         1814.86        -0.938543
         1816.89        -0.904539
         1818.92        -0.875671
         1820.95        -0.852012
         1822.98        -0.833335
         1825.02        -0.819126
         1827.05        -0.808594
         1829.08        -0.800682
         1831.11        -0.794116
         1833.15        -0.787498
         1835.18        -0.779477
         1837.21        -0.768976
         1839.24         -0.75543
         1841.28        -0.738929
         1843.31        -0.720166
         1845.34        -0.700187
         1847.37        -0.680017
          1849.4        -0.660373
         1851.44        -0.641583
         1853.47        -0.623704
          1855.5        -0.606714
         1857.53        -0.590616
         1859.57        -0.575439
          1861.6        -0.561198
         1863.63        -0.547909
         1865.66        -0.535659
          1867.7        -0.524656
         1869.73        -0.515199
         1871.76        -0.507555
         1873.79        -0.501808
         1875.82        -0.497717
         1877.86        -0.494642
         1879.89        -0.491617
         1881.92        -0.487558
         1883.95         -0.48155
         1885.99        -0.473082
         1888.02        -0.462134
         1890.05        -0.449107
         1892.08        -0.434663
         1894.12        -0.419559
         1896.15        -0.404507
         1898.18        -0.390106
         1900.21        -0.376817
         1902.24        -0.364967
         1904.28        -0.354763
         1906.31        -0.346315
         1908.34        -0.339654
         1910.37        -0.334736
         1912.41        -0.331457
         1914.44        -0.329643
         1916.47        -0.329045
          1918.5        -0.329322
         1920.54        -0.330032
         1922.57        -0.330635
          1924.6        -0.330515
         1926.63        -0.329049
         1928.66        -0.325714
          1930.7        -0.320234
         1932.73        -0.312719
         1934.76         -0.30374
         1936.79        -0.294264
         1938.83        -0.285451
         1940.86        -0.278345
         1942.89        -0.273585
         1944.92        -0.271231
         1946.96        -0.270791
         1948.99        -0.271403
         1951.02        -0.272131
         1953.05         -0.27224
         1955.08        -0.271376
         1957.12        -0.269573
         1959.15        -0.267103
         1961.18        -0.264233
         1963.21        -0.261034
         1965.25        -0.257323
         1967.28        -0.252777
         1969.31        -0.247147
         1971.34        -0.240461
         1973.38        -0.233119
         1975.41        -0.225841
         1977.44        -0.219513
         1979.47        -0.214966
          1981.5        -0.212749
         1983.54        -0.212964
         1985.57        -0.215212
          1987.6        -0.218679
         1989.63        -0.222348
         1991.67        -0.225275
          1993.7        -0.226797
         1995.73        -0.226638
         1997.76        -0.224878
          1999.8        -0.221851
         2001.83        -0.218009
         2003.86        -0.213819
         2005.89         -0.20969
         2007.92        -0.205939
         2009.96        -0.202784
         2011.99         -0.20035
         2014.02        -0.198683
         2016.05        -0.197756
         2018.09        -0.197474
         2020.12        -0.197668
         2022.15        -0.198098
         2024.18        -0.198449
         2026.22        -0.198334
         2028.25        -0.197329
         2030.28        -0.195026
         2032.31        -0.191127
         2034.34        -0.185568
         2036.38        -0.178623
         2038.41        -0.170938
         2040.44        -0.163454
         2042.47        -0.157201
         2044.51        -0.153059
         2046.54        -0.151546
         2048.57        -0.152729
          2050.6        -0.156257
         2052.64        -0.161468
         2054.67        -0.167541
          2056.7        -0.173647
         2058.73        -0.179099
         2060.77        -0.183483
          2062.8        -0.186751
         2064.83        -0.189223
         2066.86        -0.191478
         2068.89        -0.194122
         2070.93        -0.197531
         2072.96        -0.201655
         2074.99        -0.205979
         2077.02        -0.209635
         2079.06        -0.211638
         2081.09        -0.211157
         2083.12         -0.20773
         2085.15        -0.201369
         2087.19        -0.192545
         2089.22        -0.182059
         2091.25        -0.170869
         2093.28        -0.159908
         2095.31        -0.149923
         2097.35        -0.141352
         2099.38        -0.134266
         2101.41        -0.128389
         2103.44        -0.123222
         2105.48         -0.11823
         2107.51        -0.113032
         2109.54        -0.107521
         2111.57        -0.101884
         2113.61        -0.096527
         2115.64        -0.091945
         2117.67        -0.088566
          2119.7        -0.086616
         2121.73        -0.086023
         2123.77        -0.086424
          2125.8        -0.087262
         2127.83        -0.087963
         2129.86        -0.088113
          2131.9        -0.087563
         2133.93        -0.086436
         2135.96         -0.08503
         2137.99        -0.083689
         2140.03        -0.082652
         2142.06        -0.081946
         2144.09        -0.081364
         2146.12        -0.080525
         2148.15        -0.079045
         2150.19        -0.076714
         2152.22         -0.07359
         2154.25        -0.069961
         2156.28        -0.066183
         2158.32        -0.062544
         2160.35         -0.05923
         2162.38        -0.056406
         2164.41        -0.054305
         2166.45        -0.053211
         2168.48        -0.053334
         2170.51        -0.054667
         2172.54        -0.056928
         2174.57        -0.059645
         2176.61        -0.062302
         2178.64        -0.064494
         2180.67        -0.065988
          2182.7        -0.066734
         2184.74        -0.066818
         2186.77        -0.066407
          2188.8          -0.0657
         2190.83        -0.064893
         2192.87        -0.064149
          2194.9        -0.063586
         2196.93         -0.06327
         2198.96        -0.063218
         2200.99        -0.063407
         2203.03        -0.063785
         2205.06        -0.064282
         2207.09        -0.064809
         2209.12        -0.065252
         2211.16        -0.065463
         2213.19        -0.065261
         2215.22        -0.064461
         2217.25        -0.062916
         2219.29        -0.060593
         2221.32        -0.057629
         2223.35        -0.054342
         2225.38        -0.051167
         2227.41        -0.048497
         2229.45        -0.046524
         2231.48        -0.045153
         2233.51        -0.044069
         2235.54        -0.042925
         2237.58        -0.041546
         2239.61        -0.040009
         2241.64        -0.038589
         2243.67        -0.037612
         2245.71        -0.037304
         2247.74        -0.037712
         2249.77        -0.038699
          2251.8        -0.039987
         2253.83        -0.041235
         2255.87        -0.042136
          2257.9         -0.04251
         2259.93        -0.042373
         2261.96        -0.041951
            2264        -0.041608
         2266.03        -0.041682
         2268.06        -0.042314
         2270.09         -0.04335
         2272.13        -0.044402
         2274.16        -0.045025
         2276.19        -0.044915
         2278.22        -0.044012
         2280.25        -0.042471
         2282.29        -0.040573
         2284.32        -0.038643
         2286.35        -0.037018
         2288.38        -0.036039
         2290.42        -0.036004
         2292.45        -0.037073
         2294.48        -0.039143
         2296.51        -0.041812
         2298.55        -0.044474
         2300.58        -0.046521
         2302.61        -0.047541
         2304.64        -0.047398
         2306.67        -0.046176
         2308.71        -0.044057
         2310.74        -0.041224
         2312.77        -0.037849
          2314.8         -0.03413
         2316.84         -0.03033
         2318.87        -0.026755
          2320.9          -0.0237
         2322.93        -0.021388
         2324.97        -0.019962
            2327        -0.019536
         2329.03        -0.020229
         2331.06        -0.022161
         2333.09        -0.025352
         2335.13         -0.02961
         2337.16        -0.034482
         2339.19        -0.039339
         2341.22        -0.043573
         2343.26         -0.04678
         2345.29        -0.048838
         2347.32        -0.049846
         2349.35        -0.049997
         2351.39        -0.049477
         2353.42        -0.048444
         2355.45        -0.047064
         2357.48        -0.045529
         2359.52        -0.044042
         2361.55         -0.04275
         2363.58        -0.041691
         2365.61        -0.040806
         2367.64        -0.039999
         2369.68        -0.039235
         2371.71         -0.03858
         2373.74        -0.038163
         2375.77        -0.038084
         2377.81        -0.038329
         2379.84        -0.038762
         2381.87        -0.039196
          2383.9        -0.039505
         2385.94        -0.039691
         2387.97        -0.039872
            2390        -0.040196
         2392.03        -0.040738
         2394.06        -0.041466
          2396.1        -0.042271
         2398.13        -0.043027
         2400.16        -0.043628
         2402.19        -0.043969
         2404.23        -0.043871
         2406.26        -0.043053
         2408.29        -0.041176
         2410.32        -0.037989
         2412.36        -0.033494
         2414.39         -0.02805
         2416.42        -0.022319
         2418.45        -0.017069
         2420.48        -0.012924
         2422.52        -0.010178
         2424.55        -0.008778
         2426.58        -0.008443
         2428.61        -0.008848
         2430.65        -0.009768
         2432.68        -0.011108
         2434.71        -0.012848
         2436.74        -0.014958
         2438.78        -0.017356
         2440.81        -0.019935
         2442.84        -0.022618
         2444.87        -0.025388
          2446.9        -0.028249
         2448.94        -0.031145
         2450.97        -0.033894
            2453        -0.036187
         2455.03        -0.037676
         2457.07        -0.038091
          2459.1        -0.037334
         2461.13        -0.035497
         2463.16        -0.032825
          2465.2        -0.029637
         2467.23        -0.026265
         2469.26         -0.02302
         2471.29        -0.020176
         2473.32        -0.017971
         2475.36        -0.016601
         2477.39        -0.016201
         2479.42        -0.016796
         2481.45        -0.018279
         2483.49         -0.02043
         2485.52        -0.022979
         2487.55        -0.025697
         2489.58        -0.028432
         2491.62        -0.031074
         2493.65        -0.033469
         2495.68        -0.035353
         2497.71        -0.036376
         2499.74        -0.036232
         2501.78        -0.034829
         2503.81        -0.032412
         2505.84        -0.029541
         2507.87        -0.026915
         2509.91        -0.025125
         2511.94        -0.024449
         2513.97        -0.024791
            2516        -0.025763
         2518.04        -0.026858
         2520.07         -0.02762
          2522.1        -0.027757
         2524.13        -0.027176
         2526.16        -0.025963
          2528.2        -0.024338
         2530.23        -0.022606
         2532.26          -0.0211
         2534.29        -0.020126
         2536.33        -0.019906
         2538.36        -0.020516
         2540.39        -0.021826
         2542.42         -0.02349
         2544.46         -0.02501
         2546.49        -0.025888
         2548.52        -0.025813
         2550.55        -0.024783
         2552.58        -0.023103
         2554.62        -0.021232
         2556.65        -0.019564
         2558.68        -0.018259
         2560.71        -0.017217
         2562.75        -0.016198
         2564.78        -0.015009
         2566.81        -0.013656
         2568.84        -0.012372
         2570.88        -0.011502
         2572.91        -0.011323
         2574.94        -0.011896
         2576.97        -0.013032
            2579        -0.014373
         2581.04         -0.01554
         2583.07        -0.016261
          2585.1        -0.016427
         2587.13         -0.01608
         2589.17        -0.015352
          2591.2        -0.014401
         2593.23        -0.013355
         2595.26        -0.012275
          2597.3        -0.011149
         2599.33        -0.009918
         2601.36        -0.008516
         2603.39        -0.006903
         2605.42        -0.005088
         2607.46        -0.003132
         2609.49        -0.001126
         2611.52         0.000835
         2613.55         0.002686
         2615.59         0.004401
         2617.62         0.005994
         2619.65         0.007494
         2621.68         0.008917
         2623.72         0.010226
         2625.75         0.011324
         2627.78         0.012054
         2629.81         0.012242
         2631.84         0.011742
         2633.88         0.010497
         2635.91         0.008593
         2637.94         0.006274
         2639.97         0.003892
         2642.01         0.001791
         2644.04         0.000178
         2646.07        -0.000958
          2648.1        -0.001815
         2650.14        -0.002638
         2652.17        -0.003551
          2654.2         -0.00445
         2656.23        -0.005023
         2658.26        -0.004896
          2660.3        -0.003821
         2662.33        -0.001814
         2664.36         0.000829
         2666.39         0.003638
         2668.43         0.006145
         2670.46         0.008031
         2672.49         0.009191
         2674.52         0.009704
         2676.56         0.009772
         2678.59          0.00962
         2680.62         0.009436
         2682.65         0.009321
         2684.69           0.0093
         2686.72         0.009331
         2688.75         0.009335
         2690.78         0.009216
         2692.81         0.008877
         2694.85         0.008233
         2696.88         0.007227
         2698.91         0.005846
         2700.94         0.004138
         2702.98          0.00222
         2705.01         0.000258
         2707.04        -0.001567
         2709.07        -0.003105
         2711.11        -0.004264
         2713.14        -0.005019
         2715.17        -0.005402
          2717.2        -0.005467
         2719.23        -0.005256
         2721.27        -0.004775
          2723.3        -0.004004
         2725.33        -0.002931
         2727.36        -0.001605
          2729.4        -0.000175
         2731.43         0.001116
         2733.46         0.002022
         2735.49         0.002413
         2737.53         0.002357
         2739.56         0.002106
         2741.59         0.001959
         2743.62         0.002099
         2745.65         0.002469
         2747.69         0.002785
         2749.72          0.00266
         2751.75         0.001809
         2753.78         0.000182
         2755.82        -0.002004
         2757.85        -0.004384
         2759.88        -0.006607
         2761.91        -0.008485
         2763.95        -0.010029
         2765.98        -0.011374
         2768.01        -0.012627
         2770.04        -0.013762
         2772.07        -0.014595
         2774.11         -0.01489
         2776.14        -0.014494
         2778.17        -0.013449
          2780.2        -0.011997
         2782.24        -0.010474
         2784.27         -0.00918
          2786.3         -0.00828
         2788.33        -0.007789
         2790.37        -0.007609
          2792.4        -0.007595
         2794.43        -0.007595
         2796.46        -0.007483
         2798.49        -0.007164
         2800.53         -0.00657
         2802.56        -0.005653
         2804.59        -0.004395
         2806.62        -0.002832
         2808.66        -0.001085
         2810.69         0.000624
         2812.72         0.001987
         2814.75         0.002681
         2816.79          0.00248
         2818.82         0.001379
         2820.85        -0.000371
         2822.88        -0.002329
         2824.91        -0.004044
         2826.95        -0.005235
         2828.98        -0.005911
         2831.01        -0.006341
         2833.04        -0.006913
         2835.08        -0.007932
         2837.11        -0.009493
         2839.14        -0.011464
         2841.17        -0.013581
         2843.21        -0.015593
         2845.24        -0.017358
         2847.27        -0.018859
          2849.3        -0.020136
         2851.33        -0.021183
         2853.37        -0.021877
          2855.4        -0.021991
         2857.43        -0.021282
         2859.46        -0.019619
          2861.5        -0.017075
         2863.53        -0.013943
         2865.56        -0.010656
         2867.59        -0.007662
         2869.63        -0.005314
         2871.66        -0.003815
         2873.69        -0.003216
         2875.72        -0.003439
         2877.75        -0.004314
         2879.79        -0.005625
         2881.82        -0.007149
         2883.85        -0.008687
         2885.88        -0.010095
         2887.92        -0.011299
         2889.95        -0.012309
         2891.98        -0.013195
         2894.01        -0.014057
         2896.05        -0.014976
         2898.08        -0.015961
         2900.11        -0.016924
         2902.14        -0.017676
         2904.17        -0.017988
         2906.21        -0.017668
         2908.24        -0.016634
         2910.27        -0.014971
          2912.3        -0.012922
         2914.34        -0.010834
         2916.37        -0.009036
          2918.4        -0.007724
         2920.43        -0.006893
         2922.47        -0.006367
          2924.5        -0.005915
         2926.53        -0.005384
         2928.56        -0.004797
         2930.59        -0.004349
         2932.63        -0.004309
         2934.66        -0.004871
         2936.69        -0.006045
         2938.72        -0.007638
         2940.76        -0.009328
         2942.79        -0.010814
         2944.82        -0.011933
         2946.85        -0.012711
         2948.89        -0.013304
         2950.92        -0.013872
         2952.95        -0.014471
         2954.98        -0.015026
         2957.01         -0.01539
         2959.05        -0.015463
         2961.08        -0.015283
         2963.11        -0.015042
         2965.14        -0.015001
         2967.18        -0.015356
         2969.21        -0.016117
         2971.24        -0.017085
         2973.27        -0.017935
         2975.31        -0.018372
         2977.34        -0.018264
         2979.37        -0.017684
          2981.4        -0.016828
         2983.44        -0.015877
         2985.47        -0.014884
          2987.5        -0.013751
         2989.53        -0.012318
         2991.56        -0.010499
          2993.6        -0.008382
         2995.63        -0.006258
         2997.66         -0.00453
         2999.69        -0.003575
         3001.73        -0.003622
         3003.76        -0.004685
         3005.79        -0.006575
         3007.82         -0.00895
         3009.86        -0.011403
         3011.89        -0.013543
         3013.92        -0.015073
         3015.95        -0.015839
         3017.98        -0.015864
         3020.02        -0.015343
         3022.05        -0.014598
         3024.08        -0.013997
         3026.11        -0.013866
         3028.15        -0.014409
         3030.18        -0.015646
         3032.21        -0.017404
         3034.24        -0.019364
         3036.28        -0.021167
         3038.31        -0.022538
         3040.34        -0.023376
         3042.37        -0.023765
          3044.4        -0.023876
         3046.44        -0.023842
         3048.47        -0.023652
          3050.5        -0.023139
         3052.53        -0.022053
         3054.57        -0.020192
          3056.6        -0.017509
         3058.63        -0.014159
         3060.66        -0.010469
          3062.7        -0.006846
         3064.73        -0.003684
         3066.76        -0.001301
         3068.79          8.4e-05
         3070.82         0.000352
         3072.86        -0.000519
         3074.89        -0.002448
         3076.92        -0.005238
         3078.95        -0.008573
         3080.99        -0.012052
         3083.02        -0.015271
         3085.05        -0.017913
         3087.08        -0.019824
         3089.12         -0.02102
         3091.15         -0.02163
         3093.18         -0.02183
         3095.21        -0.021808
         3097.24        -0.021769
         3099.28        -0.021952
         3101.31        -0.022593
         3103.34        -0.023829
         3105.37        -0.025583
         3107.41        -0.027518
         3109.44        -0.029093
         3111.47        -0.029725
          3113.5        -0.028993
         3115.54        -0.026787
         3117.57        -0.023355
          3119.6        -0.019209
         3121.63        -0.014956
         3123.66        -0.011114
          3125.7        -0.008012
         3127.73        -0.005787
         3129.76        -0.004453
         3131.79        -0.003968
         3133.83         -0.00425
         3135.86        -0.005168
         3137.89        -0.006542
         3139.92        -0.008193
         3141.96        -0.010007
         3143.99        -0.011958
         3146.02        -0.014061
         3148.05        -0.016281
         3150.08        -0.018466
         3152.12         -0.02036
         3154.15        -0.021692
         3156.18        -0.022273
         3158.21        -0.022071
         3160.25        -0.021233
         3162.28        -0.020054
         3164.31         -0.01891
         3166.34        -0.018167
         3168.38        -0.018103
         3170.41        -0.018846
         3172.44        -0.020364
         3174.47        -0.022482
          3176.5        -0.024919
         3178.54         -0.02733
         3180.57         -0.02936
          3182.6        -0.030726
         3184.63        -0.031298
         3186.67        -0.031135
          3188.7        -0.030446
         3190.73         -0.02949
         3192.76        -0.028479
          3194.8        -0.027527
         3196.83        -0.026655
         3198.86        -0.025811
         3200.89        -0.024889
         3202.92        -0.023742
         3204.96        -0.022219
         3206.99        -0.020246
         3209.02        -0.017913
         3211.05          -0.0155
         3213.09        -0.013428
         3215.12        -0.012125
         3217.15        -0.011906
         3219.18         -0.01289
         3221.22        -0.014992
         3223.25        -0.017956
         3225.28        -0.021407
         3227.31        -0.024901
         3229.34           -0.028
         3231.38        -0.030358
         3233.41         -0.03181
         3235.44         -0.03241
         3237.47        -0.032396
         3239.51        -0.032105
         3241.54        -0.031867
         3243.57        -0.031932
          3245.6        -0.032451
         3247.64        -0.033491
         3249.67        -0.035058
          3251.7        -0.037088
         3253.73        -0.039415
         3255.76        -0.041769
          3257.8         -0.04383
         3259.83        -0.045341
         3261.86        -0.046216
         3263.89        -0.046577
         3265.93        -0.046682
         3267.96        -0.046802
         3269.99        -0.047107
         3272.02        -0.047635
         3274.06        -0.048334
         3276.09        -0.049126
         3278.12        -0.049951
         3280.15        -0.050774
         3282.18        -0.051583
         3284.22         -0.05242
         3286.25         -0.05343
         3288.28        -0.054894
         3290.31        -0.057195
         3292.35        -0.060719
         3294.38        -0.065714
         3296.41        -0.072196
         3298.44        -0.079931
         3300.48          -0.0885
         3302.51        -0.097403
         3304.54        -0.106128
         3306.57        -0.114185
         3308.61        -0.121116
         3310.64        -0.126512
         3312.67        -0.130073
          3314.7        -0.131675
         3316.73        -0.131405
         3318.77        -0.129538
          3320.8        -0.126469
         3322.83        -0.122619
         3324.86         -0.11837
          3326.9        -0.114034
         3328.93        -0.109845
         3330.96        -0.105945
         3332.99        -0.102344
         3335.03        -0.098886
         3337.06        -0.095266
         3339.09        -0.091123
         3341.12        -0.086187
         3343.15        -0.080398
         3345.19        -0.073944
         3347.22        -0.067187
         3349.25        -0.060517
         3351.28        -0.054212
         3353.32        -0.048374
         3355.35        -0.042954
         3357.38        -0.037854
         3359.41        -0.033022
         3361.45        -0.028488
         3363.48        -0.024332
         3365.51        -0.020613
         3367.54        -0.017322
         3369.57        -0.014417
         3371.61        -0.011899
         3373.64        -0.009887
         3375.67        -0.008618
          3377.7         -0.00836
         3379.74        -0.009274
         3381.77        -0.011299
          3383.8        -0.014128
         3385.83        -0.017297
         3387.87         -0.02032
          3389.9        -0.022805
         3391.93        -0.024488
         3393.96        -0.025195
         3395.99        -0.024796
         3398.03        -0.023207
         3400.06        -0.020452
         3402.09        -0.016749
         3404.12        -0.012548
         3406.16        -0.008475
         3408.19        -0.005207
         3410.22        -0.003294
         3412.25        -0.003016
         3414.29        -0.004316
         3416.32        -0.006845
         3418.35        -0.010092
         3420.38        -0.013531
         3422.41         -0.01673
         3424.45        -0.019363
         3426.48        -0.021173
         3428.51         -0.02193
         3430.54        -0.021436
         3432.58        -0.019599
         3434.61        -0.016516
         3436.64         -0.01251
         3438.67        -0.008079
         3440.71        -0.003777
         3442.74         -6.1e-05
         3444.77         0.002814
          3446.8         0.004824
         3448.83         0.006103
         3450.87         0.006811
          3452.9         0.007025
         3454.93         0.006707
         3456.96         0.005774
            3459         0.004205
         3461.03         0.002136
         3463.06        -0.000139
         3465.09        -0.002251
         3467.13         -0.00389
         3469.16         -0.00491
         3471.19        -0.005361
         3473.22        -0.005447
         3475.25        -0.005406
         3477.29        -0.005405
         3479.32        -0.005478
         3481.35        -0.005558
         3483.38        -0.005568
         3485.42        -0.005507
         3487.45        -0.005467
         3489.48        -0.005582
         3491.51         -0.00592
         3493.55        -0.006428
         3495.58        -0.006936
         3497.61        -0.007248
         3499.64        -0.007242
         3501.67        -0.006934
         3503.71        -0.006478
         3505.74        -0.006108
         3507.77        -0.006056
          3509.8        -0.006466
         3511.84        -0.007338
         3513.87        -0.008521
          3515.9        -0.009783
         3517.93        -0.010905
         3519.97        -0.011763
            3522        -0.012335
         3524.03        -0.012626
         3526.06         -0.01257
         3528.09        -0.011975
         3530.13        -0.010563
         3532.16        -0.008098
         3534.19        -0.004535
         3536.22        -0.000116
         3538.26         0.004639
         3540.29         0.009034
         3542.32         0.012364
         3544.35         0.014096
         3546.39         0.013998
         3548.42         0.012181
         3550.45         0.009038
         3552.48           0.0051
         3554.51         0.000886
         3556.55         -0.00321
         3558.58        -0.006929
         3560.61        -0.010088
         3562.64        -0.012493
         3564.68        -0.013883
         3566.71        -0.013973
         3568.74        -0.012563
         3570.77        -0.009665
         3572.81        -0.005584
         3574.84        -0.000904
         3576.87         0.003628
          3578.9         0.007264
         3580.93         0.009425
         3582.97         0.009824
            3585          0.00849
         3587.03         0.005706
         3589.06         0.001877
          3591.1        -0.002595
         3593.13        -0.007378
         3595.16        -0.012199
         3597.19        -0.016775
         3599.23        -0.020748
         3601.26        -0.023671
         3603.29        -0.025078
         3605.32        -0.024607
         3607.36        -0.022138
         3609.39        -0.017872
         3611.42        -0.012318
         3613.45        -0.006195
         3615.48        -0.000281
         3617.52         0.004755
         3619.55         0.008497
         3621.58         0.010855
         3623.61         0.012036
         3625.65         0.012419
         3627.68         0.012363
         3629.71         0.012048
         3631.74         0.011413
         3633.78         0.010228
         3635.81         0.008257
         3637.84         0.005437
         3639.87         0.001982
          3641.9        -0.001629
         3643.94        -0.004786
         3645.97        -0.006934
            3648        -0.007743
         3650.03        -0.007205
         3652.07        -0.005629
          3654.1        -0.003542
         3656.13        -0.001517
         3658.16           -4e-06
          3660.2           0.0008
         3662.23         0.000971
         3664.26         0.000762
         3666.29         0.000428
         3668.32          7.5e-05
         3670.36        -0.000407
         3672.39        -0.001284
         3674.42        -0.002816
         3676.45        -0.005102
         3678.49        -0.007975
         3680.52        -0.011025
         3682.55        -0.013718
         3684.58         -0.01555
         3686.62        -0.016189
         3688.65         -0.01556
         3690.68        -0.013858
         3692.71        -0.011509
         3694.74        -0.009059
         3696.78        -0.007031
         3698.81        -0.005766
         3700.84        -0.005319
         3702.87        -0.005448
         3704.91         -0.00573
         3706.94        -0.005742
         3708.97        -0.005248
            3711        -0.004282
         3713.04        -0.003115
         3715.07        -0.002106
          3717.1        -0.001507
         3719.13        -0.001321
         3721.16        -0.001262
          3723.2        -0.000853
         3725.23         0.000379
         3727.26         0.002696
         3729.29         0.006017
         3731.33         0.009895
         3733.36         0.013618
         3735.39         0.016385
         3737.42         0.017506
         3739.46         0.016598
         3741.49         0.013706
         3743.52         0.009318
         3745.55         0.004242
         3747.58        -0.000612
         3749.62        -0.004501
         3751.65         -0.00704
         3753.68         -0.00827
         3755.71        -0.008567
         3757.75        -0.008437
         3759.78        -0.008291
         3761.81        -0.008264
         3763.84        -0.008177
         3765.88        -0.007627
         3767.91        -0.006193
         3769.94        -0.003651
         3771.97        -0.000113
            3774         0.003946
         3776.04         0.007788
         3778.07         0.010584
          3780.1         0.011626
         3782.13         0.010518
         3784.17         0.007302
          3786.2         0.002471
         3788.23        -0.003152
         3790.26        -0.008644
          3792.3        -0.013247
         3794.33        -0.016569
         3796.36        -0.018649
         3798.39         -0.01986
         3800.42        -0.020701
         3802.46        -0.021553
         3804.49        -0.022502
         3806.52        -0.023277
         3808.55         -0.02335
         3810.59        -0.022125
         3812.62        -0.019164
         3814.65         -0.01434
         3816.68        -0.007887
         3818.72        -0.000358
         3820.75         0.007481
         3822.78         0.014777
         3824.81         0.020732
         3826.84         0.024726
         3828.88         0.026439
         3830.91         0.025906
         3832.94         0.023491
         3834.97         0.019769
         3837.01         0.015352
         3839.04         0.010719
         3841.07         0.006133
          3843.1         0.001645
         3845.14        -0.002817
         3847.17        -0.007324
          3849.2        -0.011825
         3851.23        -0.016056
         3853.26        -0.019537
          3855.3        -0.021662
         3857.33        -0.021865
         3859.36          -0.0198
         3861.39        -0.015468
         3863.43        -0.009243
         3865.46        -0.001819
         3867.49           0.0059
         3869.52         0.012928
         3871.56         0.018345
         3873.59         0.021432
         3875.62         0.021806
         3877.65         0.019508
         3879.68            0.015
         3881.72          0.00906
         3883.75         0.002581
         3885.78        -0.003654
         3887.81        -0.009149
         3889.85        -0.013763
         3891.88        -0.017661
         3893.91         -0.02115
         3895.94        -0.024472
         3897.98        -0.027626
         3900.01        -0.030304
         3902.04        -0.031961
         3904.07        -0.031996
          3906.1        -0.029956
         3908.14        -0.025692
         3910.17        -0.019399
          3912.2        -0.011582
         3914.23        -0.002956
         3916.27         0.005657
          3918.3         0.013443
         3920.33         0.019704
         3922.36         0.023966
          3924.4         0.026081
         3926.43         0.026263
         3928.46         0.025032
         3930.49         0.023057
         3932.53          0.02092
         3934.56         0.018905
         3936.59         0.016902
         3938.62         0.014457
         3940.65         0.010971
         3942.69         0.005975
         3944.72        -0.000623
         3946.75        -0.008394
         3948.78        -0.016427
         3950.82        -0.023544
         3952.85        -0.028606
         3954.88        -0.030809
         3956.91        -0.029843
         3958.95        -0.025915
         3960.98        -0.019647
         3963.01        -0.011929
         3965.04        -0.003763
         3967.07         0.003868
         3969.11         0.010131
         3971.14         0.014451
         3973.17          0.01661
          3975.2         0.016787
         3977.24         0.015498
         3979.27         0.013428
          3981.3         0.011207
         3983.33         0.009187
         3985.37         0.007338
          3987.4         0.005291
         3989.43         0.002501
         3991.46        -0.001528
         3993.49        -0.007023
         3995.53        -0.013813
         3997.56        -0.021301
         3999.59        -0.028564
         4001.62        -0.034559
         4003.66        -0.038354
         4005.69        -0.039335
         4007.72         -0.03731
         4009.75        -0.032506
         4011.79        -0.025483
         4013.82        -0.017016
         4015.85        -0.007982
         4017.88         0.000731
         4019.91         0.008307
         4021.95          0.01409
         4023.98         0.017683
         4026.01         0.019041
         4028.04         0.018518
         4030.08         0.016812
         4032.11           0.0148
         4034.14         0.013297
         4036.17         0.012809
         4038.21         0.013393
         4040.24         0.014636
         4042.27         0.015778
          4044.3         0.015914
         4046.33         0.014246
         4048.37         0.010318
          4050.4         0.004187
         4052.43        -0.003533
         4054.46        -0.011777
          4056.5        -0.019277
         4058.53        -0.024856
         4060.56        -0.027691
         4062.59        -0.027451
         4064.63        -0.024308
         4066.66        -0.018851
         4068.69        -0.011943
         4070.72        -0.004574
         4072.75         0.002277
         4074.79         0.007775
         4076.82         0.011356
         4078.85         0.012827
         4080.88         0.012416
         4082.92         0.010711
         4084.95         0.008485
         4086.98         0.006441
         4089.01         0.004969
         4091.05         0.004004
         4093.08         0.003042
         4095.11         0.001289
         4097.14        -0.002081
         4099.17        -0.007639
         4101.21        -0.015469
         4103.24        -0.025051
         4105.27        -0.035335
          4107.3         -0.04498
         4109.34        -0.052688
         4111.37        -0.057511
          4113.4        -0.059015
         4115.43        -0.057293
         4117.47        -0.052863
          4119.5        -0.046511
         4121.53        -0.039155
         4123.56        -0.031746
         4125.59        -0.025198
         4127.63        -0.020324
         4129.66        -0.017762
         4131.69        -0.017876
         4133.72         -0.02065
         4135.76        -0.025641
         4137.79        -0.032006
         4139.82        -0.038664
         4141.85        -0.044522
         4143.89        -0.048708
         4145.92        -0.050716
         4147.95        -0.050435
         4149.98        -0.048081
         4152.01        -0.044079
         4154.05        -0.038953
         4156.08        -0.033248
         4158.11         -0.02748
         4160.14        -0.022115
         4162.18        -0.017545
         4164.21        -0.014064
         4166.24        -0.011829
         4168.27        -0.010817
         4170.31        -0.010802
         4172.34        -0.011375
         4174.37        -0.012011
          4176.4        -0.012183
         4178.43        -0.011461
         4180.47        -0.009583
          4182.5        -0.006468
         4184.53        -0.002188
         4186.56         0.003081
          4188.6         0.009102
         4190.63         0.015608
         4192.66           0.0223
         4194.69         0.028845
         4196.73         0.034855
         4198.76         0.039877
         4200.79         0.043396
         4202.82         0.044868
         4204.85         0.043797
         4206.89         0.039841
         4208.92          0.03293
         4210.95         0.023348
         4212.98         0.011733
         4215.02        -0.001025
         4217.05        -0.013947
         4219.08        -0.026135
         4221.11        -0.036871
         4223.15        -0.045652
         4225.18        -0.052177
         4227.21        -0.056331
         4229.24        -0.058167
         4231.28         -0.05789
         4233.31        -0.055816
         4235.34         -0.05232
         4237.37        -0.047782
          4239.4        -0.042544
         4241.44        -0.036881
         4243.47        -0.030999
          4245.5        -0.025036
         4247.53        -0.019071
         4249.57        -0.013137
          4251.6        -0.007236
         4253.63        -0.001348
         4255.66          0.00456
          4257.7         0.010527
         4259.73         0.016586
         4261.76          0.02276
         4263.79         0.029048
         4265.82         0.035412
         4267.86         0.041764
         4269.89         0.047941
         4271.92         0.053685
         4273.95         0.058626
         4275.99         0.062269
         4278.02         0.064012
         4280.05         0.063203
         4282.08         0.059244
         4284.12          0.05175
         4286.15         0.040729
         4288.18         0.026714
         4290.21         0.010781
         4292.24        -0.005602
         4294.28        -0.020855
         4296.31        -0.033619
         4298.34        -0.042993
         4300.37        -0.048629
         4302.41        -0.050663
         4304.44        -0.049561
         4306.47        -0.045942
          4308.5        -0.040439
         4310.54        -0.033608
         4312.57        -0.025895
          4314.6        -0.017634
         4316.63        -0.009062
         4318.66        -0.000351
          4320.7         0.008361
         4322.73         0.016934
         4324.76         0.025195
         4326.79         0.032906
         4328.83         0.039731
         4330.86         0.045222
         4332.89         0.048817
         4334.92         0.049883
         4336.96         0.047797
         4338.99         0.042093
         4341.02         0.032636
         4343.05         0.019781
         4345.08         0.004432
         4347.12        -0.012041
         4349.15        -0.028054
         4351.18        -0.042133
         4353.21        -0.053203
         4355.25        -0.060732
         4357.28        -0.064715
         4359.31         -0.06554
         4361.34        -0.063809
         4363.38        -0.060176
         4365.41        -0.055248
         4367.44        -0.049518
         4369.47         -0.04336
          4371.5        -0.037031
         4373.54        -0.030696
         4375.57        -0.024442
          4377.6        -0.018308
         4379.63        -0.012292
         4381.67         -0.00637
          4383.7        -0.000505
         4385.73         0.005345
         4387.76         0.011223
          4389.8         0.017161
         4391.83         0.023172
         4393.86         0.029244
         4395.89         0.035324
         4397.92         0.041306
         4399.96         0.047014
         4401.99         0.052188
         4404.02         0.056484
         4406.05         0.059478
         4408.09         0.060704
         4410.12         0.059707
         4412.15         0.056124
         4414.18          0.04977
         4416.22         0.040709
         4418.25         0.029298
         4420.28         0.016188
         4422.31         0.002288
         4424.34        -0.011328
         4426.38        -0.023568
         4428.41        -0.033494
         4430.44        -0.040478
         4432.47         -0.04427
         4434.51        -0.044983
         4436.54        -0.042989
         4438.57        -0.038799
          4440.6        -0.032952
         4442.64        -0.025941
         4444.67        -0.018182
          4446.7        -0.010012
         4448.73        -0.001707
         4450.76         0.006489
          4452.8         0.014337
         4454.83         0.021579
         4456.86         0.027923
         4458.89         0.033048
         4460.93         0.036627
         4462.96         0.038369
         4464.99          0.03807
         4467.02         0.035646
         4469.06         0.031136
         4471.09         0.024676
         4473.12         0.016465
         4475.15         0.006762
         4477.18        -0.004071
         4479.22        -0.015506
         4481.25        -0.026827
         4483.28        -0.037204
         4485.31        -0.045843
         4487.35         -0.05215
         4489.38        -0.055848
         4491.41        -0.056979
         4493.44        -0.055839
         4495.48        -0.052865
         4497.51        -0.048529
         4499.54        -0.043262
         4501.57        -0.037417
          4503.6        -0.031258
         4505.64        -0.024962
         4507.67        -0.018641
          4509.7        -0.012355
         4511.73        -0.006131
         4513.77          2.3e-05
          4515.8         0.006101
         4517.83         0.012088
         4519.86         0.017946
          4521.9         0.023602
         4523.93         0.028942
         4525.96         0.033801
         4527.99         0.037971
         4530.02         0.041221
         4532.06         0.043341
         4534.09         0.044189
         4536.12         0.043752
         4538.15         0.042173
         4540.19          0.03972
         4542.22         0.036707
         4544.25         0.033368
         4546.28         0.029753
         4548.32         0.025703
         4550.35         0.020912
         4552.38         0.015089
         4554.41          0.00813
         4556.45          0.00026
         4558.48        -0.007945
         4560.51        -0.015664
         4562.54        -0.022034
         4564.57        -0.026364
         4566.61        -0.028277
         4568.64         -0.02774
         4570.67        -0.025014
          4572.7        -0.020544
         4574.74        -0.014869
         4576.77        -0.008544
          4578.8        -0.002109
         4580.83         0.003941
         4582.87         0.009169
          4584.9         0.013231
         4586.93         0.015915
         4588.96         0.017189
         4590.99         0.017221
         4593.03          0.01634
         4595.06         0.014944
         4597.09         0.013362
         4599.12         0.011722
         4601.16         0.009894
         4603.19          0.00752
         4605.22         0.004137
         4607.25         -0.00065
         4609.29        -0.006981
         4611.32        -0.014628
         4613.35        -0.022984
         4615.38        -0.031192
         4617.41        -0.038347
         4619.45        -0.043717
         4621.48        -0.046882
         4623.51        -0.047758
         4625.54        -0.046537
         4627.58        -0.043573
         4629.61        -0.039278
         4631.64         -0.03404
         4633.67        -0.028187
         4635.71        -0.021968
         4637.74        -0.015563
         4639.77        -0.009095
          4641.8        -0.002653
         4643.83         0.003689
         4645.87         0.009854
          4647.9         0.015744
         4649.93         0.021224
         4651.96          0.02612
            4654         0.030221
         4656.03         0.033302
         4658.06          0.03517
         4660.09         0.035727
         4662.13         0.035026
         4664.16         0.033313
         4666.19         0.030999
         4668.22         0.028569
         4670.25         0.026446
         4672.29          0.02485
         4674.32         0.023721
         4676.35         0.022723
         4678.38         0.021326
         4680.42         0.018963
         4682.45         0.015197
         4684.48         0.009888
         4686.51         0.003288
         4688.55        -0.003969
         4690.58        -0.011001
         4692.61        -0.016894
         4694.64        -0.020919
         4696.67        -0.022674
         4698.71        -0.022119
         4700.74        -0.019517
         4702.77        -0.015336
          4704.8        -0.010146
         4706.84        -0.004547
         4708.87         0.000886
          4710.9         0.005641
         4712.93         0.009311
         4714.97          0.01165
            4717         0.012619
         4719.03         0.012408
         4721.06         0.011405
         4723.09         0.010089
         4725.13         0.008888
         4727.16         0.008033
         4729.19         0.007474
         4731.22         0.006878
         4733.26         0.005724
         4735.29         0.003441
         4737.32        -0.000407
         4739.35        -0.005963
         4741.39         -0.01298
         4743.42        -0.020827
         4745.45        -0.028624
         4747.48         -0.03545
         4749.51         -0.04056
         4751.55         -0.04352
         4753.58        -0.044232
         4755.61        -0.042874
         4757.64        -0.039786
         4759.68        -0.035367
         4761.71        -0.029998
         4763.74           -0.024
         4765.77        -0.017622
         4767.81        -0.011051
         4769.84        -0.004423
         4771.87         0.002151
          4773.9         0.008566
         4775.93         0.014701
         4777.97         0.020406
            4780         0.025491
         4782.03         0.029729
         4784.06         0.032884
          4786.1         0.034754
         4788.13         0.035234
         4790.16         0.034383
         4792.19          0.03246
         4794.23         0.029899
         4796.26         0.027216
         4798.29         0.024863
         4800.32         0.023088
         4802.35          0.02185
         4804.39         0.020823
         4806.42         0.019482
         4808.45         0.017255
         4810.48         0.013702
         4812.52         0.008669
         4814.55         0.002393
         4816.58        -0.004514
         4818.61        -0.011191
         4820.65        -0.016748
         4822.68        -0.020469
         4824.71        -0.021965
         4826.74        -0.021199
         4828.77        -0.018435
         4830.81        -0.014138
         4832.84        -0.008879
         4834.87        -0.003257
          4836.9         0.002147
         4838.94         0.006816
         4840.97         0.010337
            4843         0.012463
         4845.03         0.013159
         4847.07         0.012629
          4849.1         0.011282
         4851.13         0.009628
         4853.16         0.008121
         4855.19         0.007019
         4857.23         0.006289
         4859.26         0.005609
         4861.29         0.004458
         4863.32         0.002265
         4865.36        -0.001415
         4867.39        -0.006738
         4869.42        -0.013471
         4871.45        -0.021004
         4873.49         -0.02848
         4875.52        -0.034997
         4877.55        -0.039826
         4879.58        -0.042539
         4881.62        -0.043042
         4883.65        -0.041507
         4885.68        -0.038267
         4887.71        -0.033711
         4889.74        -0.028212
         4891.78        -0.022084
         4893.81         -0.01557
         4895.84        -0.008851
         4897.87        -0.002061
         4899.91          0.00469
         4901.94         0.011295
         4903.97          0.01763
            4906         0.023538
         4908.04         0.028819
         4910.07         0.033233
          4912.1         0.036528
         4914.13         0.038482
         4916.16          0.03897
          4918.2         0.038029
         4920.23         0.035896
         4922.26         0.032978
         4924.29         0.029758
         4926.33         0.026643
         4928.36         0.023831
         4930.39         0.021241
         4932.42         0.018538
         4934.46         0.015262
         4936.49         0.011004
         4938.52         0.005591
         4940.55        -0.000795
         4942.58        -0.007609
         4944.62        -0.014057
         4946.65        -0.019301
         4948.68        -0.022661
         4950.71        -0.023764
         4952.75        -0.022569
         4954.78        -0.019315
         4956.81        -0.014431
         4958.84         -0.00844
         4960.88        -0.001895
         4962.91         0.004658
         4964.94         0.010701
         4966.97         0.015766
            4969         0.019473
         4971.04         0.021578
         4973.07         0.022027
          4975.1         0.020979
         4977.13         0.018771
         4979.17         0.015815
          4981.2         0.012454
         4983.23         0.008836
         4985.26         0.004869
          4987.3         0.000285
         4989.33        -0.005214
         4991.36        -0.011765
         4993.39        -0.019203
         4995.42        -0.027033
         4997.46         -0.03452
         4999.49        -0.040874
         5001.52        -0.045458
         5003.55        -0.047912
         5005.59        -0.048186
         5007.62        -0.046476
         5009.65        -0.043128
         5011.68        -0.038534
         5013.72        -0.033062
         5015.75        -0.027015
         5017.78        -0.020618
         5019.81        -0.014027
         5021.84        -0.007337
         5023.88        -0.000603
         5025.91         0.006144
         5027.94         0.012878
         5029.97         0.019568
         5032.01         0.026153
         5034.04         0.032532
         5036.07         0.038551
          5038.1         0.043993
         5040.14         0.048582
         5042.17         0.052007
          5044.2         0.053962
         5046.23         0.054211
         5048.26         0.052651
          5050.3         0.049349
         5052.33         0.044527
         5054.36         0.038489
         5056.39         0.031522
         5058.43         0.023831
         5060.46         0.015559
         5062.49         0.006873
         5064.52        -0.001911
         5066.56        -0.010275
         5068.59        -0.017547
         5070.62        -0.023041
         5072.65        -0.026225
         5074.68         -0.02683
         5076.72         -0.02488
         5078.75        -0.020629
         5080.78        -0.014473
         5082.81        -0.006859
         5084.85         0.001771
         5086.88         0.011004
         5088.91         0.020455
         5090.94         0.029742
         5092.98         0.038466
         5095.01         0.046193
         5097.04         0.052456
         5099.07         0.056783
          5101.1         0.058754
         5103.14         0.058067
         5105.17         0.054602
          5107.2         0.048447
         5109.23         0.039893
         5111.27         0.029403
          5113.3         0.017586
         5115.33         0.005184
         5117.36        -0.006965
          5119.4        -0.018002
         5121.43        -0.027173
         5123.46        -0.033957
         5125.49        -0.038142
         5127.52        -0.039821
         5129.56        -0.039313
         5131.59         -0.03706
         5133.62        -0.033527
         5135.65        -0.029126
         5137.69        -0.024175
         5139.72        -0.018882
         5141.75        -0.013365
         5143.78        -0.007681
         5145.82         -0.00186
         5147.85         0.004083
         5149.88         0.010138
         5151.91         0.016308
         5153.94          0.02261
         5155.98         0.029064
         5158.01         0.035676
         5160.04         0.042406
         5162.07         0.049135
         5164.11         0.055638
         5166.14         0.061559
         5168.17         0.066421
          5170.2         0.069644
         5172.24           0.0706
         5174.27         0.068698
          5176.3         0.063489
         5178.33         0.054807
         5180.37         0.042892
          5182.4         0.028455
         5184.43         0.012632
         5186.46        -0.003186
         5188.49        -0.017603
         5190.53        -0.029469
         5192.56        -0.038054
         5194.59        -0.043087
         5196.62        -0.044692
         5198.66        -0.043258
         5200.69        -0.039299
         5202.72        -0.033339
         5204.75        -0.025844
         5206.79        -0.017211
         5208.82        -0.007791
         5210.85         0.002071
         5212.88         0.012001
         5214.91         0.021584
         5216.95         0.030367
         5218.98         0.037858
         5221.01         0.043533
         5223.04         0.046824
         5225.08         0.047145
         5227.11         0.043967
         5229.14         0.036964
         5231.17         0.026204
         5233.21         0.012298
         5235.24        -0.003578
         5237.27        -0.019853
          5239.3        -0.034879
         5241.33        -0.047286
         5243.37        -0.056248
          5245.4        -0.061552
         5247.43        -0.063499
         5249.46        -0.062691
          5251.5        -0.059818
         5253.53        -0.055504
         5255.56        -0.050237
         5257.59        -0.044372
         5259.63        -0.038167
         5261.66          -0.0318
         5263.69        -0.025377
         5265.72         -0.01892
         5267.75        -0.012367
         5269.79        -0.005603
         5271.82         0.001485
         5273.85          0.00895
         5275.88         0.016741
         5277.92         0.024695
         5279.95         0.032566
         5281.98         0.040059
         5284.01         0.046873
         5286.05         0.052721
         5288.08         0.057319
         5290.11         0.060351
         5292.14         0.061442
         5294.17         0.060169
         5296.21         0.056136
         5298.24         0.049116
         5300.27         0.039201
          5302.3         0.026891
         5304.34         0.013078
         5306.37        -0.001079
          5308.4         -0.01435
         5310.43        -0.025631
         5312.47        -0.034098
          5314.5        -0.039308
         5316.53        -0.041217
         5318.56        -0.040134
         5320.59        -0.036609
         5322.63        -0.031287
         5324.66         -0.02477
         5326.69         -0.01753
         5328.72        -0.009877
         5330.76         -0.00201
         5332.79         0.005889
         5334.82         0.013563
         5336.85         0.020608
         5338.89         0.026479
         5340.92         0.030555
         5342.95         0.032269
         5344.98         0.031258
         5347.01         0.027505
         5349.05         0.021394
         5351.08          0.01365
         5353.11         0.005152
         5355.14        -0.003297
         5357.18         -0.01116
         5359.21        -0.018214
         5361.24        -0.024473
         5363.27        -0.030027
         5365.31        -0.034905
         5367.34        -0.039016
         5369.37        -0.042174
          5371.4         -0.04417
         5373.43        -0.044826
         5375.47        -0.044034
          5377.5        -0.041765
         5379.53        -0.038086
         5381.56        -0.033172
          5383.6        -0.027296
         5385.63        -0.020811
         5387.66        -0.014087
         5389.69         -0.00745
         5391.73        -0.001117
         5393.76          0.00483
         5395.79         0.010431
         5397.82         0.015783
         5399.85         0.020948
         5401.89         0.025866
         5403.92         0.030306
         5405.95         0.033893
         5407.98         0.036189
         5410.02         0.036823
         5412.05         0.035628
         5414.08         0.032734
         5416.11         0.028569
         5418.15         0.023776
         5420.18         0.019047
         5422.21         0.014967
         5424.24         0.011908
         5426.27         0.009987
         5428.31         0.009091
         5430.34         0.008919
         5432.37         0.009057
          5434.4         0.009071
         5436.44         0.008615
         5438.47         0.007526
          5440.5         0.005854
         5442.53         0.003816
         5444.57         0.001687
          5446.6        -0.000315
         5448.63        -0.002105
         5450.66         -0.00375
         5452.69        -0.005435
         5454.73        -0.007395
         5456.76        -0.009821
         5458.79        -0.012759
         5460.82        -0.016027
         5462.86        -0.019206
         5464.89        -0.021725
         5466.92        -0.023028
         5468.95        -0.022744
         5470.99        -0.020802
         5473.02        -0.017439
         5475.05        -0.013126
         5477.08        -0.008437
         5479.11        -0.003924
         5481.15         -2.6e-05
         5483.18         0.002965
         5485.21         0.004893
         5487.24         0.005709
         5489.28         0.005443
         5491.31         0.004226
         5493.34         0.002308
         5495.37            6e-05
         5497.41        -0.002086
         5499.44        -0.003745
         5501.47        -0.004681
          5503.5        -0.004858
         5505.54         -0.00442
         5507.57        -0.003621
          5509.6        -0.002754
         5511.63        -0.002114
         5513.66        -0.001984
          5515.7        -0.002618
         5517.73        -0.004186
         5519.76        -0.006687
         5521.79        -0.009866
         5523.83        -0.013209
         5525.86        -0.016023
         5527.89         -0.01761
         5529.92        -0.017448
         5531.96        -0.015307
         5533.99         -0.01128
         5536.02        -0.005719
         5538.05         0.000872
         5540.08         0.007956
         5542.12         0.015065
         5544.15         0.021866
         5546.18         0.028187
         5548.21         0.033979
         5550.25         0.039224
         5552.28          0.04381
         5554.31         0.047433
         5556.34         0.049542
         5558.38         0.049398
         5560.41         0.046223
         5562.44         0.039425
         5564.47         0.028838
          5566.5         0.014883
         5568.54        -0.001405
         5570.57        -0.018547
          5572.6        -0.034915
         5574.63        -0.049047
         5576.67        -0.059879
          5578.7        -0.066835
         5580.73        -0.069801
         5582.76        -0.069022
          5584.8        -0.064982
         5586.83        -0.058282
         5588.86        -0.049536
         5590.89        -0.039309
         5592.92        -0.028078
         5594.96        -0.016227
         5596.99        -0.004065
         5599.02         0.008146
         5601.05         0.020153
         5603.09         0.031668
         5605.12          0.04234
         5607.15         0.051724
         5609.18         0.059282
         5611.22         0.064405
         5613.25         0.066486
         5615.28         0.065019
         5617.31          0.05973
         5619.34          0.05069
         5621.38         0.038381
         5623.41         0.023693
         5625.44         0.007826
         5627.47        -0.007858
         5629.51         -0.02203
         5631.54        -0.033577
         5633.57        -0.041762
          5635.6         -0.04631
         5637.64        -0.047401
         5639.67        -0.045585
          5641.7        -0.041627
         5643.73         -0.03635
         5645.76        -0.030486
          5647.8        -0.024568
         5649.83        -0.018893
         5651.86        -0.013535
         5653.89        -0.008436
         5655.93        -0.003522
         5657.96         0.001185
         5659.99         0.005504
         5662.02         0.009116
         5664.06         0.011646
         5666.09         0.012806
         5668.12         0.012528
         5670.15         0.011053
         5672.18         0.008923
         5674.22         0.006856
         5676.25         0.005546
         5678.28          0.00546
         5680.31         0.006697
         5682.35         0.008965
         5684.38         0.011643
         5686.41         0.013923
         5688.44         0.014988
         5690.48           0.0142
         5692.51         0.011274
         5694.54         0.006396
         5696.57         0.000237
          5698.6        -0.006173
         5700.64        -0.011676
         5702.67        -0.015258
          5704.7        -0.016259
         5706.73        -0.014466
         5708.77        -0.010088
          5710.8        -0.003653
         5712.83         0.004105
         5714.86         0.012349
          5716.9         0.020214
         5718.93         0.026868
         5720.96         0.031585
         5722.99         0.033831
         5725.02         0.033366
         5727.06         0.030309
         5729.09         0.025149
         5731.12         0.018659
         5733.15          0.01172
         5735.19         0.005132
         5737.22        -0.000562
         5739.25        -0.005145
         5741.28        -0.008704
         5743.32        -0.011506
         5745.35        -0.013831
         5747.38        -0.015823
         5749.41        -0.017429
         5751.44        -0.018455
         5753.48        -0.018697
         5755.51        -0.018102
         5757.54        -0.016857
         5759.57        -0.015382
         5761.61        -0.014225
         5763.64        -0.013886
         5765.67        -0.014655
          5767.7          -0.0165
         5769.74         -0.01906
         5771.77         -0.02176
          5773.8        -0.023997
         5775.83        -0.025325
         5777.86        -0.025563
          5779.9        -0.024784
         5781.93        -0.023216
         5783.96        -0.021093
         5785.99        -0.018534
         5788.03        -0.015487
         5790.06        -0.011752
         5792.09         -0.00707
         5794.12        -0.001225
         5796.16         0.005876
         5798.19         0.014167
         5800.22         0.023425
         5802.25         0.033287
         5804.29         0.043266
         5806.32         0.052756
         5808.35         0.061027
         5810.38         0.067238
         5812.41         0.070482
         5814.45         0.069883
         5816.48         0.064774
         5818.51         0.054902
         5820.54         0.040636
         5822.58         0.023054
         5824.61         0.003856
         5826.64        -0.014925
         5828.67        -0.031326
         5830.71        -0.043828
         5832.74        -0.051585
         5834.77        -0.054444
          5836.8        -0.052813
         5838.83        -0.047447
         5840.87        -0.039252
          5842.9        -0.029144
         5844.93        -0.017976
         5846.96        -0.006519
            5849         0.004523
         5851.03         0.014501
         5853.06          0.02282
         5855.09         0.028972
         5857.13         0.032596
         5859.16         0.033547
         5861.19         0.031941
         5863.22         0.028138
         5865.25         0.022647
         5867.29         0.015999
         5869.32         0.008649
         5871.35         0.000947
         5873.38        -0.006818
         5875.42         -0.01435
         5877.45        -0.021312
         5879.48        -0.027345
         5881.51        -0.032106
         5883.55        -0.035303
         5885.58        -0.036707
         5887.61        -0.036162
         5889.64        -0.033608
         5891.67        -0.029105
         5893.71        -0.022858
         5895.74        -0.015205
         5897.77        -0.006599
          5899.8         0.002432
         5901.84         0.011315
         5903.87         0.019469
          5905.9         0.026353
         5907.93          0.03152
         5909.97         0.034708
            5912         0.035915
         5914.03         0.035445
         5916.06         0.033875
         5918.09          0.03193
         5920.13         0.030296
         5922.16         0.029454
         5924.19         0.029581
         5926.22         0.030573
         5928.26         0.032131
         5930.29          0.03388
         5932.32         0.035437
         5934.35         0.036421
         5936.39         0.036429
         5938.42         0.035011
         5940.45         0.031713
         5942.48         0.026187
         5944.51         0.018335
         5946.55         0.008432
         5948.58        -0.002843
         5950.61        -0.014477
         5952.64         -0.02529
         5954.68        -0.034152
         5956.71        -0.040175
         5958.74         -0.04285
         5960.77         -0.04207
         5962.81        -0.038074
         5964.84        -0.031326
         5966.87        -0.022391
          5968.9        -0.011837
         5970.93         -0.00018
         5972.97         0.012133
            5975         0.024704
         5977.03         0.037147
         5979.06          0.04904
          5981.1         0.059881
         5983.13         0.069053
         5985.16         0.075818
         5987.19         0.079359
         5989.23         0.078891
         5991.26         0.073828
         5993.29         0.064007
         5995.32         0.049866
         5997.35         0.032521
         5999.39         0.013655
         6001.42         -0.00476
         6003.45        -0.020839
         6005.48        -0.033126
         6007.52        -0.040795
         6009.55        -0.043685
         6011.58        -0.042184
         6013.61        -0.037043
         6015.65        -0.029193
         6017.68        -0.019605
         6019.71         -0.00921
         6021.74         0.001138
         6023.77         0.010665
         6025.81         0.018695
         6027.84         0.024687
         6029.87           0.0283
          6031.9         0.029476
         6033.94         0.028474
         6035.97          0.02585
            6038         0.022338
         6040.03         0.018689
         6042.07          0.01553
          6044.1         0.013288
         6046.13         0.012205
         6048.16         0.012369
         6050.19         0.013739
         6052.23         0.016132
         6054.26         0.019198
         6056.29         0.022434
         6058.32         0.025253
         6060.36         0.027109
         6062.39         0.027632
         6064.42         0.026711
         6066.45         0.024497
         6068.49         0.021311
         6070.52         0.017509
         6072.55         0.013379
         6074.58         0.009126
         6076.61         0.004944
         6078.65         0.001125
         6080.68        -0.001887
         6082.71        -0.003542
         6084.74        -0.003313
         6086.78        -0.000843
         6088.81         0.003958
         6090.84         0.010892
         6092.87          0.01952
         6094.91         0.029215
         6096.94          0.03921
         6098.97         0.048615
            6101         0.056445
         6103.03         0.061671
         6105.07         0.063331
          6107.1           0.0607
         6109.13         0.053483
         6111.16         0.041975
          6113.2         0.027113
         6115.23         0.010364
         6117.26        -0.006523
         6119.29        -0.021842
         6121.33        -0.034202
         6123.36        -0.042699
         6125.39        -0.046954
         6127.42        -0.047055
         6129.46        -0.043443
         6131.49        -0.036785
         6133.52        -0.027854
         6135.55         -0.01745
         6137.58        -0.006334
         6139.62           0.0048
         6141.65         0.015345
         6143.68         0.024793
         6145.71         0.032742
         6147.75         0.038916
         6149.78         0.043208
         6151.81         0.045735
         6153.84         0.046874
         6155.88         0.047238
         6157.91         0.047574
         6159.94          0.04857
         6161.97         0.050668
            6164         0.053917
         6166.04          0.05793
         6168.07         0.061934
          6170.1         0.064901
         6172.13         0.065724
         6174.17         0.063435
          6176.2         0.057417
         6178.23         0.047582
         6180.26         0.034465
          6182.3         0.019188
         6184.33         0.003296
         6186.36        -0.011512
         6188.39        -0.023692
         6190.42        -0.032103
         6192.46        -0.036142
         6194.49         -0.03573
         6196.52        -0.031196
         6198.55        -0.023109
         6200.59        -0.012142
         6202.62         0.001028
         6204.65          0.01575
         6206.68         0.031389
         6208.72         0.047304
         6210.75         0.062825
         6212.78         0.077261
         6214.81         0.089911
         6216.84         0.100097
         6218.88         0.107222
         6220.91         0.110856
         6222.94          0.11085
         6224.97         0.107442
         6227.01         0.101303
         6229.04         0.093465
         6231.07         0.085149
          6233.1         0.077511
         6235.14         0.071414
         6237.17         0.067305
          6239.2         0.065239
         6241.23         0.065026
         6243.26         0.066405
          6245.3         0.069171
         6247.33         0.073185
         6249.36         0.078311
         6251.39         0.084329
         6253.43         0.090897
         6255.46         0.097583
         6257.49         0.103953
         6259.52         0.109656
         6261.56         0.114464
         6263.59         0.118264
         6265.62         0.121001
         6267.65         0.122624
         6269.68         0.123053
         6271.72         0.122147
         6273.75         0.119679
         6275.78         0.115332
         6277.81          0.10877
         6279.85           0.0998
         6281.88         0.088566
         6283.91         0.075683
         6285.94           0.0622
         6287.98         0.049395
         6290.01         0.038487
         6292.04         0.030396
         6294.07         0.025618
          6296.1         0.024214
         6298.14         0.025892
         6300.17         0.030112
          6302.2         0.036214
         6304.23          0.04352
         6306.27         0.051399
          6308.3         0.059269
         6310.33         0.066584
         6312.36         0.072828
          6314.4         0.077562
         6316.43         0.080479
         6318.46          0.08145
         6320.49         0.080536
         6322.52         0.077983
         6324.56         0.074212
         6326.59         0.069797
         6328.62         0.065415
         6330.65         0.061747
         6332.69         0.059364
         6334.72         0.058636
         6336.75          0.05968
         6338.78         0.062368
         6340.82          0.06638
         6342.85         0.071299
         6344.88          0.07673
         6346.91         0.082406
         6348.94         0.088236
         6350.98         0.094288
         6353.01         0.100721
         6355.04         0.107686
         6357.07         0.115225
         6359.11         0.123192
         6361.14         0.131219
         6363.17         0.138757
          6365.2         0.145171
         6367.24         0.149881
         6369.27         0.152504
          6371.3          0.15297
         6373.33          0.15158
         6375.36          0.14897
          6377.4         0.145983
         6379.43         0.143491
         6381.46         0.142225
         6383.49         0.142668
         6385.53         0.145013
         6387.56         0.149172
         6389.59         0.154827
         6391.62         0.161493
         6393.66         0.168605
         6395.69         0.175589
         6397.72         0.181923
         6399.75         0.187156
         6401.78         0.190936
         6403.82         0.193046
         6405.85         0.193483
         6407.88         0.192516
         6409.91         0.190686
         6411.95         0.188715
         6413.98         0.187341
         6416.01         0.187173
         6418.04         0.188607
         6420.08         0.191853
         6422.11         0.196985
         6424.14         0.204006
         6426.17         0.212844
         6428.21         0.223325
         6430.24         0.235139
         6432.27         0.247819
          6434.3         0.260749
         6436.33         0.273156
         6438.37          0.28408
          6440.4         0.292347
         6442.43         0.296575
         6444.46          0.29522
          6446.5         0.286632
         6448.53         0.269123
         6450.56         0.241024
         6452.59         0.200754
         6454.63         0.146926
         6456.66         0.078492
         6458.69        -0.005025
         6460.72        -0.103174
         6462.75        -0.214128
         6464.79        -0.334242
         6466.82        -0.457871
         6468.85         -0.57768
         6470.88        -0.685599
         6472.92        -0.774229
         6474.95        -0.838286
         6476.98         -0.87555
         6479.01        -0.887007
         6481.05        -0.876225
         6483.08        -0.848269
         6485.11        -0.808566
         6487.14        -0.762006
         6489.17        -0.712408
         6491.21        -0.662363
         6493.24        -0.613372
         6495.27        -0.566141
          6497.3        -0.520917
         6499.34        -0.477761
         6501.37        -0.436702
          6503.4         -0.39779
         6505.43        -0.361091
         6507.47         -0.32666
          6509.5        -0.294516
         6511.53        -0.264637
         6513.56        -0.236973
         6515.59        -0.211456
         6517.63        -0.188032
         6519.66        -0.166681
         6521.69        -0.147434
         6523.72        -0.130384
         6525.76         -0.11568
         6527.79        -0.103493
         6529.82         -0.09396
         6531.85        -0.087092
         6533.89        -0.082698
         6535.92        -0.080317
         6537.95        -0.079247
         6539.98        -0.078642
         6542.01        -0.077674
         6544.05        -0.075706
         6546.08        -0.072395
         6548.11        -0.067716
         6550.14        -0.061922
         6552.18         -0.05546
         6554.21        -0.048887
         6556.24        -0.042799
         6558.27        -0.037757
         6560.31        -0.034217
         6562.34        -0.032444
         6564.37        -0.032436
          6566.4         -0.03388
         6568.43        -0.036178
         6570.47        -0.038559
          6572.5        -0.040246
         6574.53        -0.040627
         6576.56        -0.039362
          6578.6        -0.036409
         6580.63        -0.031981
         6582.66        -0.026464
         6584.69        -0.020342
         6586.73        -0.014132
         6588.76        -0.008342
         6590.79        -0.003428
         6592.82         0.000239
         6594.85          0.00241
         6596.89          0.00298
         6598.92         0.001975
         6600.95        -0.000479
         6602.98        -0.004193
         6605.02        -0.008936
         6607.05        -0.014407
         6609.08        -0.020197
         6611.11        -0.025774
         6613.15        -0.030531
         6615.18        -0.033907
         6617.21        -0.035508
         6619.24        -0.035198
         6621.27        -0.033117
         6623.31        -0.029638
         6625.34        -0.025294
         6627.37        -0.020701
          6629.4        -0.016495
         6631.44        -0.013262
         6633.47        -0.011476
          6635.5        -0.011416
         6637.53        -0.013095
         6639.57        -0.016211
          6641.6        -0.020178
         6643.63        -0.024237
         6645.66        -0.027615
         6647.69        -0.029689
         6649.73        -0.030095
         6651.76        -0.028743
         6653.79        -0.025774
         6655.82        -0.021477
         6657.86        -0.016216
         6659.89        -0.010379
         6661.92        -0.004356
         6663.95         0.001466
         6665.99         0.006699
         6668.02         0.010953
         6670.05         0.013867
         6672.08         0.015149
         6674.11         0.014658
         6676.15         0.012475
         6678.18         0.008956
         6680.21         0.004704
         6682.24         0.000471
         6684.28        -0.003012
         6686.31        -0.005193
         6688.34        -0.005812
         6690.37        -0.004928
         6692.41        -0.002868
         6694.44        -0.000148
         6696.47         0.002624
          6698.5         0.004838
         6700.53         0.005981
         6702.57         0.005727
          6704.6          0.00402
         6706.63         0.001122
         6708.66        -0.002419
          6710.7        -0.005873
         6712.73        -0.008495
         6714.76        -0.009691
         6716.79        -0.009122
         6718.83        -0.006731
         6720.86        -0.002701
         6722.89         0.002615
         6724.92         0.008766
         6726.95         0.015245
         6728.99         0.021519
         6731.02         0.027046
         6733.05         0.031297
         6735.08           0.0338
         6737.12         0.034212
         6739.15         0.032396
         6741.18         0.028483
         6743.21         0.022881
         6745.25         0.016217
         6747.28         0.009223
         6749.31         0.002604
         6751.34        -0.003083
         6753.38        -0.007508
         6755.41        -0.010608
         6757.44        -0.012588
         6759.47        -0.013859
          6761.5        -0.014933
         6763.54        -0.016277
         6765.57        -0.018166
          6767.6        -0.020584
         6769.63        -0.023216
         6771.67        -0.025532
          6773.7        -0.026951
         6775.73           -0.027
         6777.76        -0.025434
          6779.8        -0.022265
         6781.83        -0.017732
         6783.86        -0.012233
         6785.89        -0.006255
         6787.92        -0.000328
         6789.96         0.005024
         6791.99         0.009315
         6794.02         0.012161
         6796.05         0.013338
         6798.09         0.012857
         6800.12         0.010997
         6802.15         0.008275
         6804.18         0.005333
         6806.22         0.002777
         6808.25          0.00101
         6810.28         0.000135
         6812.31         -4.8e-05
         6814.34          3.9e-05
         6816.38        -0.000108
         6818.41        -0.000911
         6820.44        -0.002577
         6822.47        -0.005008
         6824.51        -0.007813
         6826.54        -0.010401
         6828.57        -0.012148
          6830.6        -0.012559
         6832.64        -0.011386
         6834.67        -0.008654
          6836.7         -0.00463
         6838.73         0.000246
         6840.76          0.00544
          6842.8         0.010384
         6844.83          0.01454
         6846.86         0.017464
         6848.89         0.018879
         6850.93         0.018741
         6852.96         0.017274
         6854.99         0.014934
         6857.02         0.012301
         6859.06         0.009912
         6861.09         0.008108
         6863.12         0.006947
         6865.15         0.006222
         6867.18         0.005563
         6869.22         0.004599
         6871.25         0.003113
         6873.28          0.00115
         6875.31        -0.000971
         6877.35        -0.002747
         6879.38        -0.003644
         6881.41        -0.003267
         6883.44        -0.001471
         6885.48         0.001607
         6887.51         0.005585
         6889.54         0.009923
         6891.57         0.014024
          6893.6         0.017343
         6895.64         0.019484
         6897.67         0.020289
          6899.7         0.019871
         6901.73         0.018584
         6903.77         0.016913
          6905.8         0.015311
         6907.83         0.014062
         6909.86         0.013205
          6911.9         0.012576
         6913.93         0.011926
         6915.96         0.011077
         6917.99         0.010043
         6920.02         0.009063
         6922.06          0.00853
         6924.09         0.008846
         6926.12         0.010265
         6928.15         0.012786
         6930.19         0.016139
         6932.22         0.019848
         6934.25         0.023354
         6936.28         0.026154
         6938.32          0.02792
         6940.35         0.028574
         6942.38         0.028275
         6944.41         0.027336
         6946.44         0.026101
         6948.48         0.024841
         6950.51         0.023724
         6952.54         0.022864
         6954.57         0.022407
         6956.61         0.022575
         6958.64         0.023636
         6960.67         0.025799
          6962.7         0.029089
         6964.74          0.03326
         6966.77         0.037804
          6968.8         0.042031
         6970.83         0.045214
         6972.86         0.046745
          6974.9         0.046263
         6976.93         0.043724
         6978.96         0.039394
         6980.99          0.03378
         6983.03         0.027538
         6985.06         0.021379
         6987.09         0.015989
         6989.12         0.011956
         6991.16         0.009679
         6993.19         0.009301
         6995.22         0.010664
         6997.25         0.013346
         6999.28         0.016771
         7001.32         0.020363
         7003.35         0.023693
         7005.38         0.026556
         7007.41         0.028972
         7009.45         0.031126
         7011.48         0.033284
         7013.51         0.035724
         7015.54         0.038681
         7017.58         0.042285
         7019.61         0.046502
         7021.64         0.051099
         7023.67         0.055674
          7025.7         0.059754
         7027.74         0.062929
         7029.77         0.064955
          7031.8         0.065789
         7033.83         0.065512
         7035.87         0.064206
          7037.9         0.061804
         7039.93         0.058003
         7041.96         0.052261
            7044         0.043888
         7046.03         0.032198
         7048.06         0.016664
         7050.09        -0.002944
         7052.13        -0.026451
         7054.16        -0.053183
         7056.19         -0.08191
         7058.22        -0.110893
         7060.25        -0.138087
         7062.29        -0.161483
         7064.32        -0.179497
         7066.35        -0.191258
         7068.38         -0.19669
         7070.42        -0.196402
         7072.45        -0.191437
         7074.48        -0.183013
         7076.51        -0.172307
         7078.55        -0.160332
         7080.58        -0.147878
         7082.61        -0.135517
         7084.64        -0.123628
         7086.67        -0.112445
         7088.71        -0.102085
         7090.74        -0.092592
         7092.77        -0.083957
          7094.8        -0.076143
         7096.84        -0.069092
         7098.87        -0.062738
          7100.9        -0.057015
         7102.93        -0.051856
         7104.97          -0.0472
            7107        -0.042987
         7109.03        -0.039164
         7111.06        -0.035684
         7113.09        -0.032502
         7115.13         -0.02958
         7117.16        -0.026881
         7119.19        -0.024373
         7121.22        -0.022027
         7123.26        -0.019816
         7125.29        -0.017714
         7127.32        -0.015699
         7129.35        -0.013749
         7131.39        -0.011843
         7133.42        -0.009963
         7135.45        -0.008092
         7137.48        -0.006216
         7139.51        -0.004324
         7141.55        -0.002411
         7143.58         -0.00048
         7145.61         0.001455
         7147.64         0.003361
         7149.68         0.005186
         7151.71         0.006849
         7153.74         0.008233
         7155.77         0.009192
         7157.81         0.009547
         7159.84         0.009115
         7161.87         0.007737
          7163.9          0.00533
         7165.93         0.001935
         7167.97        -0.002251
            7170        -0.006888
         7172.03        -0.011544
         7174.06        -0.015786
          7176.1        -0.019273
         7178.13        -0.021809
         7180.16        -0.023356
         7182.19        -0.023997
         7184.23        -0.023892
         7186.26        -0.023228
         7188.29        -0.022182
         7190.32        -0.020907
         7192.35        -0.019521
         7194.39        -0.018109
         7196.42        -0.016728
         7198.45        -0.015414
         7200.48        -0.014186
         7202.52        -0.013054
         7204.55         -0.01202
         7206.58         -0.01108
         7208.61        -0.010229
         7210.65        -0.009461
         7212.68        -0.008768
         7214.71        -0.008143
         7216.74        -0.007579
         7218.77        -0.007069
         7220.81        -0.006607
         7222.84        -0.006189
         7224.87        -0.005809
          7226.9        -0.005463
         7228.94        -0.005147
         7230.97        -0.004859
            7233        -0.004595
         7235.03        -0.004352
         7237.07        -0.004128
          7239.1        -0.003922
         7241.13        -0.003731
         7243.16        -0.003555
         7245.19         -0.00339
         7247.23        -0.003238
         7249.26        -0.003095
         7251.29        -0.002962
         7253.32        -0.002837
         7255.36         -0.00272
         7257.39         -0.00261
         7259.42        -0.002507
         7261.45        -0.002409
         7263.49        -0.002317
         7265.52        -0.002229
         7267.55        -0.002146
         7269.58        -0.002067
         7271.61        -0.001992
         7273.65        -0.001921
         7275.68        -0.001852
         7277.71        -0.001787
         7279.74        -0.001724
         7281.78        -0.001664
         7283.81        -0.001606
         7285.84        -0.001551
         7287.87        -0.001497
         7289.91        -0.001445
         7291.94        -0.001395
         7293.97        -0.001346
            7296        -0.001299
         7298.03        -0.001253
         7300.07        -0.001208
          7302.1        -0.001164
         7304.13        -0.001121
         7306.16        -0.001079
          7308.2        -0.001037
         7310.23        -0.000997
         7312.26        -0.000956
         7314.29        -0.000916
         7316.33        -0.000877
         7318.36        -0.000837
         7320.39        -0.000798
         7322.42        -0.000759
         7324.45        -0.000719
         7326.49         -0.00068
         7328.52         -0.00064
         7330.55          -0.0006
         7332.58        -0.000559
         7334.62        -0.000517
         7336.65        -0.000475
         7338.68        -0.000432
         7340.71        -0.000387
         7342.75        -0.000341
         7344.78        -0.000294
         7346.81        -0.000245
         7348.84        -0.000194
         7350.87        -0.000141
         7352.91         -8.5e-05
         7354.94         -2.7e-05
         7356.97          3.4e-05
            7359          9.9e-05
         7361.04         0.000167
         7363.07          0.00024
          7365.1         0.000317
         7367.13           0.0004
         7369.17         0.000488
          7371.2         0.000584
         7373.23         0.000686
         7375.26         0.000797
          7377.3         0.000917
         7379.33         0.001047
         7381.36          0.00119
         7383.39         0.001345
         7385.42         0.001515
         7387.46         0.001701
         7389.49         0.001907
         7391.52         0.002134
         7393.55         0.002384
         7395.59         0.002662
         7397.62         0.002971
         7399.65         0.003314
         7401.68         0.003697
         7403.72         0.004124
         7405.75         0.004602
         7407.78         0.005136
         7409.81         0.005733
         7411.84         0.006401
         7413.88         0.007145
         7415.91         0.007974
         7417.94         0.008891
         7419.97         0.009899
         7422.01         0.010997
         7424.04         0.012174
         7426.07         0.013411
          7428.1          0.01467
         7430.14         0.015896
         7432.17         0.017001
          7434.2         0.017867
         7436.23         0.018342
         7438.26         0.018248
          7440.3         0.017396
         7442.33         0.015626
         7444.36         0.012854
         7446.39         0.009117
         7448.43          0.00461
         7450.46        -0.000327
         7452.49        -0.005264
         7454.52        -0.009771
         7456.56        -0.013507
         7458.59         -0.01628
         7460.62         -0.01805
         7462.65        -0.018902
         7464.68        -0.018998
         7466.72        -0.018523
         7468.75        -0.017657
         7470.78        -0.016553
         7472.81        -0.015328
         7474.85        -0.014069
         7476.88        -0.012833
         7478.91        -0.011657
         7480.94        -0.010561
         7482.98        -0.009553
         7485.01        -0.008637
         7487.04         -0.00781
         7489.07        -0.007067
          7491.1        -0.006401
         7493.14        -0.005805
         7495.17        -0.005272
          7497.2        -0.004796
         7499.23        -0.004371
         7501.27        -0.003989
          7503.3        -0.003647
         7505.33         -0.00334
         7507.36        -0.003064
          7509.4        -0.002815
         7511.43         -0.00259
         7513.46        -0.002386
         7515.49        -0.002201
         7517.52        -0.002033
         7519.56        -0.001879
         7521.59        -0.001739
         7523.62         -0.00161
         7525.65        -0.001491
         7527.69        -0.001382
         7529.72        -0.001281
         7531.75        -0.001187
         7533.78        -0.001099
         7535.82        -0.001017
         7537.85        -0.000941
         7539.88        -0.000869
         7541.91          -0.0008
         7543.94        -0.000736
         7545.98        -0.000674
         7548.01        -0.000615
         7550.04        -0.000559
         7552.07        -0.000505
         7554.11        -0.000452
         7556.14          -0.0004
         7558.17         -0.00035
          7560.2        -0.000301
         7562.24        -0.000252
         7564.27        -0.000204
          7566.3        -0.000155
         7568.33        -0.000107
         7570.36         -5.8e-05
          7572.4           -8e-06
         7574.43          4.3e-05
         7576.46          9.5e-05
         7578.49         0.000148
         7580.53         0.000203
         7582.56         0.000261
         7584.59         0.000321
         7586.62         0.000383
         7588.66          0.00045
         7590.69         0.000519
         7592.72         0.000594
         7594.75         0.000673
         7596.78         0.000757
         7598.82         0.000848
         7600.85         0.000946
         7602.88         0.001051
         7604.91         0.001165
         7606.95          0.00129
         7608.98         0.001425
         7611.01         0.001573
         7613.04         0.001735
         7615.08         0.001913
         7617.11         0.002109
         7619.14         0.002326
         7621.17         0.002566
          7623.2         0.002832
         7625.24         0.003128
         7627.27         0.003457
          7629.3         0.003824
         7631.33         0.004235
         7633.37         0.004694
          7635.4         0.005208
         7637.43         0.005782
         7639.46         0.006425
          7641.5         0.007142
         7643.53         0.007941
         7645.56         0.008825
         7647.59         0.009797
         7649.62         0.010856
         7651.66         0.011991
         7653.69         0.013185
         7655.72           0.0144
         7657.75         0.015582
         7659.79         0.016648
         7661.82         0.017483
         7663.85          0.01794
         7665.88         0.017845
         7667.92         0.017017
         7669.95         0.015302
         7671.98         0.012616
         7674.01         0.008998
         7676.05         0.004635
         7678.08        -0.000145
         7680.11        -0.004924
         7682.14        -0.009288
         7684.17        -0.012906
         7686.21        -0.015592
         7688.24        -0.017308
         7690.27        -0.018136
          7692.3        -0.018232
         7694.34        -0.017776
         7696.37        -0.016942
          7698.4        -0.015877
         7700.43        -0.014697
         7702.47        -0.013483
          7704.5        -0.012291
         7706.53        -0.011157
         7708.56          -0.0101
         7710.59         -0.00913
         7712.63        -0.008248
         7714.66        -0.007452
         7716.69        -0.006737
         7718.72        -0.006097
         7720.76        -0.005526
         7722.79        -0.005015
         7724.82        -0.004559
         7726.85        -0.004152
         7728.89        -0.003788
         7730.92        -0.003463
         7732.95        -0.003171
         7734.98         -0.00291
         7737.01        -0.002674
         7739.05        -0.002463
         7741.08        -0.002272
         7743.11        -0.002099
         7745.14        -0.001943
         7747.18        -0.001801
         7749.21        -0.001672
         7751.24        -0.001555
         7753.27        -0.001448
         7755.31         -0.00135
         7757.34         -0.00126
         7759.37        -0.001178
          7761.4        -0.001102
         7763.43        -0.001033
         7765.47        -0.000969
          7767.5         -0.00091
         7769.53        -0.000855
         7771.56        -0.000804
          7773.6        -0.000757
         7775.63        -0.000713
         7777.66        -0.000672
         7779.69        -0.000634
         7781.73        -0.000598
         7783.76        -0.000565
         7785.79        -0.000534
         7787.82        -0.000504
         7789.85        -0.000477
         7791.89        -0.000451
         7793.92        -0.000426
         7795.95        -0.000403
         7797.98        -0.000381
         7800.02         -0.00036
         7802.05         -0.00034
         7804.08        -0.000322
         7806.11        -0.000304
         7808.15        -0.000287
         7810.18         -0.00027
         7812.21        -0.000255
         7814.24         -0.00024
         7816.27        -0.000225
         7818.31        -0.000211
         7820.34        -0.000198
         7822.37        -0.000185
          7824.4        -0.000173
         7826.44        -0.000161
         7828.47        -0.000149
          7830.5        -0.000137
         7832.53        -0.000126
         7834.57        -0.000115
          7836.6        -0.000104
         7838.63         -9.4e-05
         7840.66         -8.3e-05
         7842.69         -7.3e-05
         7844.73         -6.3e-05
         7846.76         -5.3e-05
         7848.79         -4.3e-05
         7850.82         -3.3e-05
         7852.86         -2.3e-05
         7854.89         -1.3e-05
         7856.92           -3e-06
         7858.95            7e-06
         7860.99          1.7e-05
         7863.02          2.7e-05
         7865.05          3.8e-05
         7867.08          4.8e-05
         7869.11          5.9e-05
         7871.15            7e-05
         7873.18          8.1e-05
         7875.21          9.2e-05
         7877.24         0.000104
         7879.28         0.000116
         7881.31         0.000128
         7883.34         0.000141
         7885.37         0.000154
         7887.41         0.000167
         7889.44         0.000182
         7891.47         0.000196
          7893.5         0.000212
         7895.53         0.000228
         7897.57         0.000244
          7899.6         0.000262
         7901.63          0.00028
         7903.66           0.0003
          7905.7          0.00032
         7907.73         0.000341
         7909.76         0.000364
         7911.79         0.000388
         7913.83         0.000414
         7915.86         0.000441
         7917.89         0.000469
         7919.92           0.0005
         7921.95         0.000533
         7923.99         0.000567
         7926.02         0.000605
         7928.05         0.000645
         7930.08         0.000688
         7932.12         0.000734
         7934.15         0.000784
         7936.18         0.000838
         7938.21         0.000896
         7940.25         0.000959
         7942.28         0.001027
         7944.31         0.001102
         7946.34         0.001183
         7948.37         0.001271
         7950.41         0.001367
         7952.44         0.001472
         7954.47         0.001588
          7956.5         0.001715
         7958.54         0.001855
         7960.57         0.002009
          7962.6         0.002179
         7964.63         0.002367
         7966.67         0.002576
          7968.7         0.002808
         7970.73         0.003067
         7972.76         0.003355
         7974.79         0.003676
         7976.83         0.004035
         7978.86         0.004437
         7980.89         0.004888
         7982.92         0.005392
         7984.96         0.005957
         7986.99          0.00659
         7989.02         0.007296
         7991.05         0.008083
         7993.09         0.008955
         7995.12         0.009915
         7997.15         0.010959
         7999.18         0.012081
         8001.22         0.013259
         8003.25          0.01446
         8005.28         0.015628
         8007.31          0.01668
         8009.34         0.017504
         8011.38         0.017954
         8013.41         0.017858
         8015.44         0.017037
         8017.47         0.015337
         8019.51         0.012677
         8021.54         0.009093
         8023.57         0.004772
          8025.6            4e-05
         8027.64        -0.004693
         8029.67        -0.009014
          8031.7        -0.012597
         8033.73        -0.015257
         8035.76        -0.016957
          8037.8        -0.017778
         8039.83        -0.017874
         8041.86        -0.017424
         8043.89          -0.0166
         8045.93        -0.015547
         8047.96        -0.014379
         8049.99        -0.013178
         8052.02           -0.012
         8054.06        -0.010878
         8056.09        -0.009833
         8058.12        -0.008873
         8060.15        -0.008001
         8062.18        -0.007214
         8064.22        -0.006507
         8066.25        -0.005874
         8068.28        -0.005308
         8070.31        -0.004803
         8072.35        -0.004352
         8074.38         -0.00395
         8076.41         -0.00359
         8078.44        -0.003268
         8080.48        -0.002979
         8082.51         -0.00272
         8084.54        -0.002487
         8086.57        -0.002278
          8088.6        -0.002088
         8090.64        -0.001917
         8092.67        -0.001762
          8094.7        -0.001622
         8096.73        -0.001494
         8098.77        -0.001377
          8100.8         -0.00127
         8102.83        -0.001173
         8104.86        -0.001084
          8106.9        -0.001001
         8108.93        -0.000926
         8110.96        -0.000856
         8112.99        -0.000791
         8115.02        -0.000732
         8117.06        -0.000676
         8119.09        -0.000624
         8121.12        -0.000576
         8123.15        -0.000531
         8125.19        -0.000489
         8127.22         -0.00045
         8129.25        -0.000412
         8131.28        -0.000377
         8133.32        -0.000344
         8135.35        -0.000312
         8137.38        -0.000283
         8139.41        -0.000254
         8141.44        -0.000227
         8143.48        -0.000201
         8145.51        -0.000176
         8147.54        -0.000151
         8149.57        -0.000128
         8151.61        -0.000105
         8153.64         -8.3e-05
         8155.67         -6.2e-05
          8157.7         -4.1e-05
         8159.74           -2e-05
         8161.77                0
          8163.8          2.1e-05
         8165.83          4.1e-05
         8167.86          6.1e-05
          8169.9          8.1e-05
         8171.93         0.000101
         8173.96         0.000121
         8175.99         0.000142
         8178.03         0.000163
         8180.06         0.000184
         8182.09         0.000206
         8184.12         0.000228
         8186.16         0.000251
         8188.19         0.000275
         8190.22         0.000299
         8192.25         0.000325
         8194.28         0.000351
         8196.32         0.000379
         8198.35         0.000408
         8200.38         0.000439
         8202.41         0.000471
         8204.45         0.000505
         8206.48         0.000541
         8208.51         0.000579
         8210.54          0.00062
         8212.58         0.000664
         8214.61          0.00071
         8216.64          0.00076
         8218.67         0.000814
          8220.7         0.000871
         8222.74         0.000933
         8224.77         0.001001
          8226.8         0.001073
         8228.83         0.001152
         8230.87         0.001238
          8232.9         0.001332
         8234.93         0.001435
         8236.96         0.001547
            8239          0.00167
         8241.03         0.001805
         8243.06         0.001954
         8245.09         0.002119
         8247.12           0.0023
         8249.16         0.002502
         8251.19         0.002726
         8253.22         0.002975
         8255.25         0.003252
         8257.29         0.003561
         8259.32         0.003907
         8261.35         0.004294
         8263.38         0.004727
         8265.42         0.005212
         8267.45         0.005755
         8269.48         0.006363
         8271.51         0.007043
         8273.54         0.007799
         8275.58         0.008637
         8277.61         0.009559
         8279.64         0.010563
         8281.67          0.01164
         8283.71         0.012773
         8285.74         0.013926
         8287.77         0.015048
          8289.8         0.016059
         8291.84         0.016851
         8293.87         0.017283
          8295.9         0.017191
         8297.93         0.016402
         8299.96         0.014769
            8302         0.012213
         8304.03         0.008771
         8306.06         0.004619
         8308.09          7.3e-05
         8310.13        -0.004474
         8312.16        -0.008625
         8314.19        -0.012068
         8316.22        -0.014624
         8318.26        -0.016257
         8320.29        -0.017046
         8322.32        -0.017139
&
