# ACE/gr parameter file
#
@version 40102
@page layout free
@ps linewidth begin 1
@ps linewidth increment 2
@hardcopy device 1
@page 5
@page inout 5
@link page off
@default linestyle 1
@default linewidth 1
@default color 1
@default char size 1.000000
@default font 4
@default font source 0
@default symbol size 1.000000
@timestamp off
@timestamp 0.03, 0.03
@timestamp linewidth 1
@timestamp color 1
@timestamp rot 0
@timestamp font 4
@timestamp char size 1.000000
@timestamp def "Sat Jun  5 17:48:41 1999"
@with g0
@g0 on
@g0 label off
@g0 hidden false
@g0 type xy
@g0 autoscale type AUTO
@g0 fixedpoint off
@g0 fixedpoint type 0
@g0 fixedpoint xy 0.000000, 0.000000
@g0 fixedpoint format general general
@g0 fixedpoint prec 6, 6
@    world xmin 0
@    world xmax 8000
@    world ymin -3
@    world ymax 2
@    stack world 0, 0, 0, 0 tick 0, 0, 0, 0
@    view xmin 0.150000
@    view xmax 0.850000
@    view ymin 0.150000
@    view ymax 0.850000
@    title "quartet sigma system"
@    title font 4
@    title size 1.500000
@    title color 1
@    title linewidth 1
@    subtitle "D = +0.08 cm-1, gxx=gyy=gzz=g_e, v = 9.3 GHz"
@    subtitle font 4
@    subtitle size 1.000000
@    subtitle color 1
@    subtitle linewidth 1
@    s0 symbol 0
@    s0 symbol size 1.000000
@    s0 symbol fill 0
@    s0 symbol color -1
@    s0 symbol linewidth 1
@    s0 symbol linestyle 1
@    s0 symbol center false
@    s0 symbol char 0
@    s0 skip 0
@    s0 linestyle 1
@    s0 linewidth 1
@    s0 color 1
@    s0 fill 0
@    s0 fill with color
@    s0 fill color 1
@    s0 fill pattern 0
@    s0 errorbar type BOTH
@    s0 errorbar length 1.000000
@    s0 errorbar linewidth 1
@    s0 errorbar linestyle 1
@    s0 errorbar riser on
@    s0 errorbar riser linewidth 1
@    s0 errorbar riser linestyle 1
@    s0 xyz 0.000000, 0.000000
@    s0 comment "/tmp/101.0"
@    xaxis  tick on
@    xaxis  tick major 2000
@    xaxis  tick minor 1000
@    xaxis  tick offsetx 0.000000
@    xaxis  tick offsety 0.000000
@    xaxis  label "Field / Gauss"
@    xaxis  label layout para
@    xaxis  label place auto
@    xaxis  label char size 1.000000
@    xaxis  label font 4
@    xaxis  label color 1
@    xaxis  label linewidth 1
@    xaxis  ticklabel on
@    xaxis  ticklabel type auto
@    xaxis  ticklabel prec 5
@    xaxis  ticklabel format general
@    xaxis  ticklabel append ""
@    xaxis  ticklabel prepend ""
@    xaxis  ticklabel layout horizontal
@    xaxis  ticklabel place on ticks
@    xaxis  ticklabel skip 0
@    xaxis  ticklabel stagger 0
@    xaxis  ticklabel op bottom
@    xaxis  ticklabel sign normal
@    xaxis  ticklabel start type auto
@    xaxis  ticklabel start 0.000000
@    xaxis  ticklabel stop type auto
@    xaxis  ticklabel stop 0.000000
@    xaxis  ticklabel char size 1.000000
@    xaxis  ticklabel font 4
@    xaxis  ticklabel color 1
@    xaxis  ticklabel linewidth 1
@    xaxis  tick major on
@    xaxis  tick minor on
@    xaxis  tick default 6
@    xaxis  tick in
@    xaxis  tick major color 1
@    xaxis  tick major linewidth 1
@    xaxis  tick major linestyle 1
@    xaxis  tick minor color 1
@    xaxis  tick minor linewidth 1
@    xaxis  tick minor linestyle 1
@    xaxis  tick log off
@    xaxis  tick size 1.000000
@    xaxis  tick minor size 0.500000
@    xaxis  bar off
@    xaxis  bar color 1
@    xaxis  bar linestyle 1
@    xaxis  bar linewidth 1
@    xaxis  tick major grid off
@    xaxis  tick minor grid off
@    xaxis  tick op both
@    xaxis  tick type auto
@    xaxis  tick spec 0
@    yaxis  tick on
@    yaxis  tick major 1
@    yaxis  tick minor 0.5
@    yaxis  tick offsetx 0.000000
@    yaxis  tick offsety 0.000000
@    yaxis  label "Intensity / Arb."
@    yaxis  label layout para
@    yaxis  label place auto
@    yaxis  label char size 1.000000
@    yaxis  label font 4
@    yaxis  label color 1
@    yaxis  label linewidth 1
@    yaxis  ticklabel on
@    yaxis  ticklabel type auto
@    yaxis  ticklabel prec 5
@    yaxis  ticklabel format general
@    yaxis  ticklabel append ""
@    yaxis  ticklabel prepend ""
@    yaxis  ticklabel layout horizontal
@    yaxis  ticklabel place on ticks
@    yaxis  ticklabel skip 0
@    yaxis  ticklabel stagger 0
@    yaxis  ticklabel op left
@    yaxis  ticklabel sign normal
@    yaxis  ticklabel start type auto
@    yaxis  ticklabel start 0.000000
@    yaxis  ticklabel stop type auto
@    yaxis  ticklabel stop 0.000000
@    yaxis  ticklabel char size 1.000000
@    yaxis  ticklabel font 4
@    yaxis  ticklabel color 1
@    yaxis  ticklabel linewidth 1
@    yaxis  tick major on
@    yaxis  tick minor on
@    yaxis  tick default 6
@    yaxis  tick in
@    yaxis  tick major color 1
@    yaxis  tick major linewidth 1
@    yaxis  tick major linestyle 1
@    yaxis  tick minor color 1
@    yaxis  tick minor linewidth 1
@    yaxis  tick minor linestyle 1
@    yaxis  tick log off
@    yaxis  tick size 1.000000
@    yaxis  tick minor size 0.500000
@    yaxis  bar off
@    yaxis  bar color 1
@    yaxis  bar linestyle 1
@    yaxis  bar linewidth 1
@    yaxis  tick major grid off
@    yaxis  tick minor grid off
@    yaxis  tick op both
@    yaxis  tick type auto
@    yaxis  tick spec 0
@    zeroxaxis  tick on
@    zeroxaxis  tick major 2000
@    zeroxaxis  tick minor 1000
@    zeroxaxis  tick offsetx 0.000000
@    zeroxaxis  tick offsety 0.000000
@    zeroxaxis  label ""
@    zeroxaxis  label layout para
@    zeroxaxis  label place auto
@    zeroxaxis  label char size 1.000000
@    zeroxaxis  label font 4
@    zeroxaxis  label color 1
@    zeroxaxis  label linewidth 1
@    zeroxaxis  ticklabel off
@    zeroxaxis  ticklabel type auto
@    zeroxaxis  ticklabel prec 5
@    zeroxaxis  ticklabel format general
@    zeroxaxis  ticklabel append ""
@    zeroxaxis  ticklabel prepend ""
@    zeroxaxis  ticklabel layout horizontal
@    zeroxaxis  ticklabel place on ticks
@    zeroxaxis  ticklabel skip 0
@    zeroxaxis  ticklabel stagger 0
@    zeroxaxis  ticklabel op bottom
@    zeroxaxis  ticklabel sign normal
@    zeroxaxis  ticklabel start type auto
@    zeroxaxis  ticklabel start 0.000000
@    zeroxaxis  ticklabel stop type auto
@    zeroxaxis  ticklabel stop 0.000000
@    zeroxaxis  ticklabel char size 1.000000
@    zeroxaxis  ticklabel font 4
@    zeroxaxis  ticklabel color 1
@    zeroxaxis  ticklabel linewidth 1
@    zeroxaxis  tick major off
@    zeroxaxis  tick minor on
@    zeroxaxis  tick default 6
@    zeroxaxis  tick in
@    zeroxaxis  tick major color 1
@    zeroxaxis  tick major linewidth 1
@    zeroxaxis  tick major linestyle 1
@    zeroxaxis  tick minor color 1
@    zeroxaxis  tick minor linewidth 1
@    zeroxaxis  tick minor linestyle 1
@    zeroxaxis  tick log off
@    zeroxaxis  tick size 1.000000
@    zeroxaxis  tick minor size 0.500000
@    zeroxaxis  bar off
@    zeroxaxis  bar color 1
@    zeroxaxis  bar linestyle 1
@    zeroxaxis  bar linewidth 1
@    zeroxaxis  tick major grid off
@    zeroxaxis  tick minor grid off
@    zeroxaxis  tick op both
@    zeroxaxis  tick type auto
@    zeroxaxis  tick spec 0
@    zeroyaxis  tick on
@    zeroyaxis  tick major 1
@    zeroyaxis  tick minor 0.5
@    zeroyaxis  tick offsetx 0.000000
@    zeroyaxis  tick offsety 0.000000
@    zeroyaxis  label ""
@    zeroyaxis  label layout para
@    zeroyaxis  label place auto
@    zeroyaxis  label char size 1.000000
@    zeroyaxis  label font 4
@    zeroyaxis  label color 1
@    zeroyaxis  label linewidth 1
@    zeroyaxis  ticklabel off
@    zeroyaxis  ticklabel type auto
@    zeroyaxis  ticklabel prec 5
@    zeroyaxis  ticklabel format general
@    zeroyaxis  ticklabel append ""
@    zeroyaxis  ticklabel prepend ""
@    zeroyaxis  ticklabel layout horizontal
@    zeroyaxis  ticklabel place on ticks
@    zeroyaxis  ticklabel skip 0
@    zeroyaxis  ticklabel stagger 0
@    zeroyaxis  ticklabel op left
@    zeroyaxis  ticklabel sign normal
@    zeroyaxis  ticklabel start type auto
@    zeroyaxis  ticklabel start 0.000000
@    zeroyaxis  ticklabel stop type auto
@    zeroyaxis  ticklabel stop 0.000000
@    zeroyaxis  ticklabel char size 1.000000
@    zeroyaxis  ticklabel font 4
@    zeroyaxis  ticklabel color 1
@    zeroyaxis  ticklabel linewidth 1
@    zeroyaxis  tick major off
@    zeroyaxis  tick minor on
@    zeroyaxis  tick default 6
@    zeroyaxis  tick in
@    zeroyaxis  tick major color 1
@    zeroyaxis  tick major linewidth 1
@    zeroyaxis  tick major linestyle 1
@    zeroyaxis  tick minor color 1
@    zeroyaxis  tick minor linewidth 1
@    zeroyaxis  tick minor linestyle 1
@    zeroyaxis  tick log off
@    zeroyaxis  tick size 1.000000
@    zeroyaxis  tick minor size 0.500000
@    zeroyaxis  bar off
@    zeroyaxis  bar color 1
@    zeroyaxis  bar linestyle 1
@    zeroyaxis  bar linewidth 1
@    zeroyaxis  tick major grid off
@    zeroyaxis  tick minor grid off
@    zeroyaxis  tick op both
@    zeroyaxis  tick type auto
@    zeroyaxis  tick spec 0
@    legend off
@    legend loctype view
@    legend layout 0
@    legend vgap 2
@    legend hgap 1
@    legend length 4
@    legend box off
@    legend box fill off
@    legend box fill with color
@    legend box fill color 0
@    legend box fill pattern 1
@    legend box color 1
@    legend box linewidth 1
@    legend box linestyle 1
@    legend x1 0.8
@    legend y1 0.8
@    legend font 4
@    legend char size 1.000000
@    legend linestyle 1
@    legend linewidth 1
@    legend color 1
@    frame on
@    frame type 0
@    frame linestyle 1
@    frame linewidth 1
@    frame color 1
@    frame fill off
@    frame background color 0
@WITH G0
@G0 ON
@TARGET S0
@TYPE xy
         22.3204         0.000167
         23.9322         0.000168
         25.5439         0.000169
         27.1556         0.000169
         28.7673          0.00017
          30.379         0.000171
         31.9908         0.000173
         33.6025         0.000174
         35.2142         0.000175
         36.8259         0.000176
         38.4376         0.000177
         40.0494         0.000178
         41.6611         0.000179
         43.2728          0.00018
         44.8845         0.000181
         46.4963         0.000182
          48.108         0.000183
         49.7197         0.000184
         51.3314         0.000185
         52.9431         0.000186
         54.5549         0.000187
         56.1666         0.000188
         57.7783          0.00019
           59.39         0.000191
         61.0018         0.000192
         62.6135         0.000193
         64.2252         0.000194
         65.8369         0.000195
         67.4486         0.000197
         69.0604         0.000198
         70.6721         0.000199
         72.2838           0.0002
         73.8955         0.000201
         75.5072         0.000203
          77.119         0.000204
         78.7307         0.000205
         80.3424         0.000206
         81.9541         0.000207
         83.5659         0.000209
         85.1776          0.00021
         86.7893         0.000211
          88.401         0.000213
         90.0127         0.000214
         91.6245         0.000215
         93.2362         0.000216
         94.8479         0.000218
         96.4596         0.000219
         98.0713          0.00022
         99.6831         0.000222
         101.295         0.000223
         102.907         0.000224
         104.518         0.000226
          106.13         0.000227
         107.742         0.000229
         109.353          0.00023
         110.965         0.000232
         112.577         0.000233
         114.189         0.000234
           115.8         0.000236
         117.412         0.000237
         119.024         0.000239
         120.635          0.00024
         122.247         0.000242
         123.859         0.000243
         125.471         0.000245
         127.082         0.000246
         128.694         0.000248
         130.306         0.000249
         131.918         0.000251
         133.529         0.000253
         135.141         0.000254
         136.753         0.000256
         138.364         0.000257
         139.976         0.000259
         141.588         0.000261
           143.2         0.000262
         144.811         0.000264
         146.423         0.000266
         148.035         0.000268
         149.646         0.000269
         151.258         0.000271
          152.87         0.000273
         154.482         0.000274
         156.093         0.000276
         157.705         0.000278
         159.317          0.00028
         160.928         0.000282
          162.54         0.000284
         164.152         0.000285
         165.764         0.000287
         167.375         0.000289
         168.987         0.000291
         170.599         0.000293
         172.211         0.000295
         173.822         0.000297
         175.434         0.000299
         177.046         0.000301
         178.657         0.000303
         180.269         0.000305
         181.881         0.000307
         183.493         0.000309
         185.104         0.000311
         186.716         0.000313
         188.328         0.000315
         189.939         0.000317
         191.551          0.00032
         193.163         0.000322
         194.775         0.000324
         196.386         0.000326
         197.998         0.000328
          199.61         0.000331
         201.222         0.000333
         202.833         0.000335
         204.445         0.000338
         206.057          0.00034
         207.668         0.000342
          209.28         0.000345
         210.892         0.000347
         212.504         0.000349
         214.115         0.000352
         215.727         0.000354
         217.339         0.000357
          218.95         0.000359
         220.562         0.000362
         222.174         0.000365
         223.786         0.000367
         225.397          0.00037
         227.009         0.000372
         228.621         0.000375
         230.233         0.000378
         231.844         0.000381
         233.456         0.000383
         235.068         0.000386
         236.679         0.000389
         238.291         0.000392
         239.903         0.000395
         241.515         0.000398
         243.126           0.0004
         244.738         0.000403
          246.35         0.000406
         247.961         0.000409
         249.573         0.000413
         251.185         0.000416
         252.797         0.000419
         254.408         0.000422
          256.02         0.000425
         257.632         0.000428
         259.244         0.000432
         260.855         0.000435
         262.467         0.000438
         264.079         0.000442
          265.69         0.000445
         267.302         0.000448
         268.914         0.000452
         270.526         0.000455
         272.137         0.000459
         273.749         0.000462
         275.361         0.000466
         276.972          0.00047
         278.584         0.000473
         280.196         0.000477
         281.808         0.000481
         283.419         0.000485
         285.031         0.000489
         286.643         0.000493
         288.255         0.000497
         289.866         0.000501
         291.478         0.000505
          293.09         0.000509
         294.701         0.000513
         296.313         0.000517
         297.925         0.000521
         299.537         0.000526
         301.148          0.00053
          302.76         0.000534
         304.372         0.000539
         305.983         0.000543
         307.595         0.000548
         309.207         0.000553
         310.819         0.000557
          312.43         0.000562
         314.042         0.000567
         315.654         0.000572
         317.265         0.000577
         318.877         0.000582
         320.489         0.000587
         322.101         0.000592
         323.712         0.000597
         325.324         0.000602
         326.936         0.000607
         328.548         0.000613
         330.159         0.000618
         331.771         0.000624
         333.383         0.000629
         334.994         0.000635
         336.606         0.000641
         338.218         0.000646
          339.83         0.000652
         341.441         0.000658
         343.053         0.000664
         344.665          0.00067
         346.276         0.000676
         347.888         0.000683
           349.5         0.000689
         351.112         0.000696
         352.723         0.000702
         354.335         0.000709
         355.947         0.000715
         357.559         0.000722
          359.17         0.000729
         360.782         0.000736
         362.394         0.000743
         364.005          0.00075
         365.617         0.000758
         367.229         0.000765
         368.841         0.000772
         370.452          0.00078
         372.064         0.000788
         373.676         0.000796
         375.287         0.000803
         376.899         0.000811
         378.511          0.00082
         380.123         0.000828
         381.734         0.000836
         383.346         0.000845
         384.958         0.000854
          386.57         0.000862
         388.181         0.000871
         389.793          0.00088
         391.405         0.000889
         393.016         0.000899
         394.628         0.000908
          396.24         0.000918
         397.852         0.000928
         399.463         0.000938
         401.075         0.000948
         402.687         0.000958
         404.298         0.000968
          405.91         0.000979
         407.522          0.00099
         409.134            0.001
         410.745         0.001011
         412.357         0.001023
         413.969         0.001034
         415.581         0.001046
         417.192         0.001058
         418.804          0.00107
         420.416         0.001082
         422.027         0.001094
         423.639         0.001107
         425.251          0.00112
         426.863         0.001133
         428.474         0.001146
         430.086          0.00116
         431.698         0.001173
         433.309         0.001187
         434.921         0.001201
         436.533         0.001216
         438.145         0.001231
         439.756         0.001246
         441.368         0.001261
          442.98         0.001276
         444.591         0.001292
         446.203         0.001308
         447.815         0.001325
         449.427         0.001341
         451.038         0.001358
          452.65         0.001376
         454.262         0.001393
         455.874         0.001411
         457.485          0.00143
         459.097         0.001448
         460.709         0.001467
          462.32         0.001487
         463.932         0.001506
         465.544         0.001526
         467.156         0.001547
         468.767         0.001568
         470.379         0.001589
         471.991         0.001611
         473.602         0.001633
         475.214         0.001656
         476.826         0.001679
         478.438         0.001702
         480.049         0.001726
         481.661         0.001751
         483.273         0.001776
         484.885         0.001802
         486.496         0.001828
         488.108         0.001854
          489.72         0.001882
         491.331         0.001909
         492.943         0.001938
         494.555         0.001967
         496.167         0.001997
         497.778         0.002027
          499.39         0.002058
         501.002         0.002089
         502.613         0.002122
         504.225         0.002155
         505.837         0.002189
         507.449         0.002223
          509.06         0.002259
         510.672         0.002295
         512.284         0.002332
         513.896          0.00237
         515.507         0.002409
         517.119         0.002449
         518.731         0.002489
         520.342         0.002531
         521.954         0.002574
         523.566         0.002617
         525.178         0.002662
         526.789         0.002708
         528.401         0.002755
         530.013         0.002804
         531.624         0.002853
         533.236         0.002904
         534.848         0.002956
          536.46         0.003009
         538.071         0.003064
         539.683          0.00312
         541.295         0.003178
         542.907         0.003237
         544.518         0.003298
          546.13         0.003361
         547.742         0.003425
         549.353         0.003491
         550.965         0.003559
         552.577         0.003628
         554.189           0.0037
           555.8         0.003774
         557.412         0.003849
         559.024         0.003927
         560.635         0.004008
         562.247          0.00409
         563.859         0.004175
         565.471         0.004263
         567.082         0.004353
         568.694         0.004446
         570.306         0.004542
         571.918         0.004641
         573.529         0.004743
         575.141         0.004848
         576.753         0.004956
         578.364         0.005068
         579.976         0.005183
         581.588         0.005303
           583.2         0.005426
         584.811         0.005553
         586.423         0.005684
         588.035          0.00582
         589.646         0.005961
         591.258         0.006106
          592.87         0.006257
         594.482         0.006412
         596.093         0.006574
         597.705         0.006741
         599.317         0.006914
         600.928         0.007093
          602.54         0.007279
         604.152         0.007472
         605.764         0.007672
         607.375          0.00788
         608.987         0.008095
         610.599         0.008319
         612.211         0.008552
         613.822         0.008794
         615.434         0.009046
         617.046         0.009308
         618.657         0.009581
         620.269         0.009865
         621.881         0.010161
         623.493         0.010469
         625.104         0.010791
         626.716         0.011126
         628.328         0.011477
         629.939         0.011843
         631.551         0.012225
         633.163         0.012625
         634.775         0.013043
         636.386          0.01348
         637.998         0.013939
          639.61         0.014419
         641.222         0.014922
         642.833          0.01545
         644.445         0.016004
         646.057         0.016586
         647.668         0.017198
          649.28         0.017841
         650.892         0.018518
         652.504         0.019231
         654.115         0.019982
         655.727         0.020774
         657.339          0.02161
          658.95         0.022492
         660.562         0.023425
         662.174         0.024412
         663.786         0.025457
         665.397         0.026563
         667.009         0.027737
         668.621         0.028982
         670.233         0.030305
         671.844         0.031711
         673.456         0.033208
         675.068         0.034801
         676.679         0.036501
         678.291         0.038314
         679.903         0.040251
         681.515         0.042323
         683.126          0.04454
         684.738         0.046916
          686.35         0.049465
         687.961         0.052203
         689.573         0.055146
         691.185         0.058314
         692.797         0.061727
         694.408         0.065409
          696.02         0.069386
         697.632         0.073686
         699.244          0.07834
         700.855         0.083383
         702.467         0.088854
         704.079         0.094795
          705.69         0.101252
         707.302         0.108276
         708.914         0.115924
         710.526         0.124256
         712.137         0.133338
         713.749          0.14324
         715.361         0.154036
         716.972         0.165803
         718.584         0.178621
         720.196         0.192565
         721.808         0.207706
         723.419         0.224105
         725.031         0.241803
         726.643         0.260808
         728.255         0.281089
         729.866         0.302548
         731.478         0.325007
          733.09         0.348176
         734.701         0.371625
         736.313         0.394759
         737.925         0.416793
         739.537         0.436739
         741.148         0.453423
          742.76         0.465524
         744.372          0.47166
         745.983         0.470524
         747.595         0.461043
         749.207         0.442563
         750.819         0.415004
          752.43         0.378948
         754.042         0.335636
         755.654         0.286856
         757.265         0.234738
         758.877         0.181507
         760.489          0.12925
         762.101         0.079725
         763.712         0.034254
         765.324        -0.006312
         766.936        -0.041558
         768.548        -0.071431
         770.159        -0.096156
         771.771        -0.116135
         773.383        -0.131876
         774.994        -0.143925
         776.606        -0.152821
         778.218        -0.159068
          779.83        -0.163117
         781.441        -0.165363
         783.053        -0.166143
         784.665         -0.16574
         786.276        -0.164387
         787.888        -0.162275
           789.5        -0.159556
         791.112        -0.156357
         792.723         -0.15278
         794.335        -0.148918
         795.947        -0.144858
         797.559        -0.140683
          799.17        -0.136468
         800.782        -0.132279
         802.394        -0.128157
         804.005        -0.124121
         805.617        -0.120162
         807.229        -0.116252
         808.841        -0.112354
         810.452        -0.108436
         812.064        -0.104482
         813.676        -0.100503
         815.287        -0.096537
         816.899        -0.092639
         818.511         -0.08888
         820.123        -0.085322
         821.734        -0.082015
         823.346        -0.078982
         824.958        -0.076225
          826.57        -0.073723
         828.181        -0.071443
         829.793        -0.069353
         831.405        -0.067425
         833.016        -0.065639
         834.628        -0.063985
          836.24         -0.06245
         837.852        -0.061023
         839.463        -0.059683
         841.075        -0.058407
         842.687        -0.057172
         844.298        -0.055957
          845.91         -0.05475
         847.522        -0.053544
         849.134        -0.052335
         850.745        -0.051122
         852.357        -0.049905
         853.969        -0.048678
         855.581        -0.047437
         857.192        -0.046174
         858.804        -0.044881
         860.416        -0.043558
         862.027        -0.042209
         863.639        -0.040845
         865.251        -0.039489
         866.863        -0.038168
         868.474        -0.036919
         870.086        -0.035779
         871.698        -0.034787
         873.309        -0.033984
         874.921        -0.033409
         876.533          -0.0331
         878.145        -0.033096
         879.756        -0.033438
         881.368        -0.034175
          882.98        -0.035362
         884.591        -0.037066
         886.203         -0.03937
         887.815        -0.042372
         889.427        -0.046195
         891.038        -0.050976
          892.65        -0.056864
         894.262        -0.063993
         895.874        -0.072458
         897.485        -0.082275
         899.097        -0.093348
         900.709        -0.105442
          902.32        -0.118173
         903.932        -0.131022
         905.544        -0.143372
         907.156        -0.154573
         908.767         -0.16402
         910.379        -0.171225
         911.991        -0.175882
         913.602        -0.177886
         915.214        -0.177328
         916.826        -0.174461
         918.438        -0.169645
         920.049        -0.163293
         921.661         -0.15582
         923.273        -0.147612
         924.885        -0.139002
         926.496        -0.130261
         928.108          -0.1216
          929.72        -0.113171
         931.331        -0.105083
         932.943        -0.097401
         934.555        -0.090164
         936.167        -0.083385
         937.778        -0.077064
          939.39        -0.071186
         941.002        -0.065732
         942.613        -0.060678
         944.225        -0.055995
         945.837        -0.051656
         947.449        -0.047633
          949.06        -0.043899
         950.672        -0.040428
         952.284        -0.037196
         953.896         -0.03418
         955.507        -0.031359
         957.119        -0.028715
         958.731        -0.026228
         960.342        -0.023883
         961.954        -0.021665
         963.566        -0.019558
         965.178        -0.017552
         966.789        -0.015633
         968.401         -0.01379
         970.013        -0.012013
         971.624        -0.010293
         973.236        -0.008619
         974.848        -0.006984
          976.46        -0.005379
         978.071        -0.003796
         979.683        -0.002226
         981.295        -0.000663
         982.907         0.000903
         984.518         0.002478
          986.13          0.00407
         987.742         0.005688
         989.353          0.00734
         990.965         0.009034
         992.577          0.01078
         994.189         0.012588
           995.8         0.014467
         997.412         0.016428
         999.024         0.018484
         1000.64         0.020647
         1002.25         0.022931
         1003.86         0.025351
         1005.47         0.027923
         1007.08         0.030666
         1008.69         0.033598
         1010.31         0.036741
         1011.92         0.040118
         1013.53         0.043755
         1015.14         0.047677
         1016.75         0.051913
         1018.36         0.056496
         1019.98         0.061455
         1021.59         0.066825
          1023.2         0.072638
         1024.81         0.078924
         1026.42         0.085712
         1028.03         0.093023
         1029.65         0.100866
         1031.26         0.109237
         1032.87         0.118109
         1034.48         0.127424
         1036.09         0.137083
         1037.71         0.146934
         1039.32         0.156763
         1040.93         0.166278
         1042.54         0.175105
         1044.15         0.182789
         1045.76         0.188806
         1047.38          0.19259
         1048.99         0.193584
          1050.6         0.191306
         1052.21         0.185427
         1053.82         0.175843
         1055.43         0.162725
         1057.05         0.146535
         1058.66         0.127981
         1060.27         0.107939
         1061.88          0.08734
         1063.49         0.067059
          1065.1          0.04783
         1066.72         0.030192
         1068.33         0.014481
         1069.94         0.000845
         1071.55        -0.010711
         1073.16        -0.020288
         1074.77        -0.028053
         1076.39        -0.034209
            1078        -0.038973
         1079.61        -0.042563
         1081.22        -0.045191
         1082.83        -0.047052
         1084.44        -0.048317
         1086.06        -0.049134
         1087.67         -0.04962
         1089.28        -0.049861
         1090.89        -0.049915
          1092.5        -0.049815
         1094.12        -0.049573
         1095.73        -0.049189
         1097.34        -0.048654
         1098.95        -0.047963
         1100.56        -0.047116
         1102.17        -0.046122
         1103.79           -0.045
          1105.4        -0.043773
         1107.01        -0.042468
         1108.62        -0.041108
         1110.23         -0.03971
         1111.84        -0.038284
         1113.46        -0.036835
         1115.07        -0.035359
         1116.68        -0.033855
         1118.29         -0.03232
          1119.9         -0.03076
         1121.51        -0.029185
         1123.13        -0.027613
         1124.74        -0.026065
         1126.35        -0.024561
         1127.96        -0.023113
         1129.57        -0.021728
         1131.18        -0.020401
          1132.8        -0.019122
         1134.41        -0.017881
         1136.02        -0.016666
         1137.63        -0.015476
         1139.24        -0.014311
         1140.86        -0.013176
         1142.47         -0.01208
         1144.08        -0.011027
         1145.69        -0.010023
          1147.3        -0.009071
         1148.91        -0.008172
         1150.53        -0.007325
         1152.14        -0.006525
         1153.75        -0.005763
         1155.36        -0.005029
         1156.97         -0.00431
         1158.58        -0.003591
          1160.2         -0.00286
         1161.81          -0.0021
         1163.42        -0.001298
         1165.03        -0.000447
         1166.64         0.000455
         1168.25         0.001399
         1169.87         0.002367
         1171.48         0.003335
         1173.09         0.004276
          1174.7         0.005162
         1176.31         0.005971
         1177.92         0.006686
         1179.54         0.007301
         1181.15         0.007823
         1182.76         0.008269
         1184.37         0.008666
         1185.98         0.009043
          1187.6         0.009424
         1189.21         0.009832
         1190.82         0.010279
         1192.43         0.010772
         1194.04         0.011314
         1195.65         0.011904
         1197.27         0.012535
         1198.88         0.013199
         1200.49         0.013886
          1202.1         0.014583
         1203.71          0.01528
         1205.32         0.015968
         1206.94         0.016642
         1208.55         0.017296
         1210.16         0.017925
         1211.77         0.018526
         1213.38         0.019097
         1214.99          0.01964
         1216.61         0.020162
         1218.22         0.020671
         1219.83         0.021177
         1221.44         0.021692
         1223.05         0.022227
         1224.66          0.02279
         1226.28         0.023389
         1227.89         0.024028
          1229.5         0.024701
         1231.11         0.025394
         1232.72         0.026079
         1234.34         0.026725
         1235.95         0.027293
         1237.56         0.027755
         1239.17         0.028091
         1240.78         0.028296
         1242.39         0.028381
         1244.01         0.028367
         1245.62         0.028283
         1247.23         0.028165
         1248.84          0.02805
         1250.45         0.027974
         1252.06         0.027968
         1253.68         0.028054
         1255.29         0.028241
          1256.9         0.028523
         1258.51         0.028883
         1260.12         0.029296
         1261.73         0.029741
         1263.35         0.030199
         1264.96         0.030661
         1266.57         0.031123
         1268.18         0.031583
         1269.79         0.032038
          1271.4         0.032483
         1273.02         0.032915
         1274.63         0.033333
         1276.24         0.033742
         1277.85         0.034147
         1279.46         0.034549
         1281.08         0.034941
         1282.69         0.035306
          1284.3         0.035621
         1285.91         0.035865
         1287.52         0.036023
         1289.13         0.036095
         1290.75         0.036092
         1292.36         0.036032
         1293.97         0.035938
         1295.58         0.035826
         1297.19          0.03571
          1298.8         0.035603
         1300.42         0.035514
         1302.03         0.035456
         1303.64         0.035439
         1305.25         0.035465
         1306.86         0.035526
         1308.47         0.035599
         1310.09         0.035654
          1311.7         0.035659
         1313.31         0.035589
         1314.92         0.035438
         1316.53         0.035214
         1318.14         0.034943
         1319.76         0.034652
         1321.37         0.034363
         1322.98         0.034086
         1324.59         0.033816
          1326.2         0.033541
         1327.81         0.033245
         1329.43          0.03292
         1331.04         0.032569
         1332.65         0.032208
         1334.26          0.03186
         1335.87         0.031549
         1337.49         0.031298
          1339.1         0.031126
         1340.71         0.031046
         1342.32          0.03107
         1343.93         0.031205
         1345.54         0.031457
         1347.16         0.031824
         1348.77         0.032295
         1350.38         0.032847
         1351.99         0.033451
          1353.6         0.034071
         1355.21         0.034671
         1356.83         0.035212
         1358.44         0.035655
         1360.05         0.035961
         1361.66         0.036092
         1363.27          0.03601
         1364.88         0.035686
          1366.5         0.035107
         1368.11         0.034279
         1369.72         0.033235
         1371.33         0.032026
         1372.94         0.030719
         1374.55         0.029383
         1376.17         0.028078
         1377.78         0.026844
         1379.39         0.025708
            1381         0.024681
         1382.61         0.023768
         1384.23         0.022975
         1385.84         0.022305
         1387.45         0.021767
         1389.06         0.021362
         1390.67         0.021088
         1392.28         0.020937
          1393.9         0.020905
         1395.51         0.020988
         1397.12         0.021199
         1398.73         0.021558
         1400.34         0.022089
         1401.95         0.022807
         1403.57         0.023709
         1405.18         0.024759
         1406.79         0.025896
          1408.4         0.027036
         1410.01         0.028092
         1411.62         0.028991
         1413.24         0.029681
         1414.85         0.030142
         1416.46         0.030377
         1418.07         0.030406
         1419.68         0.030249
         1421.29         0.029926
         1422.91         0.029446
         1424.52         0.028816
         1426.13         0.028044
         1427.74         0.027144
         1429.35         0.026138
         1430.97         0.025056
         1432.58         0.023937
         1434.19         0.022821
          1435.8         0.021748
         1437.41         0.020759
         1439.02         0.019891
         1440.64         0.019176
         1442.25         0.018641
         1443.86         0.018296
         1445.47         0.018135
         1447.08         0.018131
         1448.69         0.018232
         1450.31         0.018373
         1451.92         0.018485
         1453.53          0.01851
         1455.14         0.018413
         1456.75         0.018191
         1458.36         0.017875
         1459.98          0.01752
         1461.59         0.017197
          1463.2         0.016975
         1464.81         0.016904
         1466.42         0.017011
         1468.03         0.017289
         1469.65         0.017704
         1471.26         0.018204
         1472.87         0.018732
         1474.48         0.019239
         1476.09         0.019693
         1477.71         0.020079
         1479.32         0.020395
         1480.93         0.020644
         1482.54         0.020823
         1484.15         0.020923
         1485.76         0.020932
         1487.38         0.020842
         1488.99         0.020653
          1490.6          0.02038
         1492.21         0.020054
         1493.82         0.019714
         1495.43         0.019397
         1497.05         0.019133
         1498.66         0.018932
         1500.27         0.018789
         1501.88         0.018686
         1503.49         0.018602
          1505.1         0.018522
         1506.72         0.018442
         1508.33         0.018371
         1509.94         0.018329
         1511.55         0.018337
         1513.16         0.018409
         1514.77         0.018545
         1516.39          0.01873
            1518         0.018941
         1519.61         0.019156
         1521.22         0.019361
         1522.83         0.019561
         1524.44         0.019771
         1526.06         0.020014
         1527.67         0.020312
         1529.28         0.020679
         1530.89         0.021118
          1532.5         0.021623
         1534.12         0.022181
         1535.73         0.022777
         1537.34         0.023393
         1538.95         0.024011
         1540.56         0.024613
         1542.17         0.025187
         1543.79          0.02573
          1545.4         0.026253
         1547.01         0.026786
         1548.62         0.027372
         1550.23         0.028064
         1551.84         0.028914
         1553.46         0.029964
         1555.07         0.031238
         1556.68         0.032746
         1558.29          0.03448
          1559.9         0.036424
         1561.51         0.038555
         1563.13         0.040852
         1564.74         0.043301
         1566.35         0.045904
         1567.96         0.048677
         1569.57         0.051651
         1571.18         0.054857
          1572.8         0.058325
         1574.41         0.062074
         1576.02         0.066115
         1577.63         0.070458
         1579.24         0.075113
         1580.86         0.080097
         1582.47         0.085431
         1584.08         0.091141
         1585.69         0.097251
          1587.3         0.103777
         1588.91         0.110715
         1590.53         0.118034
         1592.14         0.125661
         1593.75         0.133488
         1595.36          0.14137
         1596.97         0.149129
         1598.58         0.156561
          1600.2         0.163438
         1601.81         0.169513
         1603.42         0.174535
         1605.03         0.178267
         1606.64         0.180512
         1608.25         0.181138
         1609.87         0.180097
         1611.48         0.177435
         1613.09         0.173292
          1614.7         0.167887
         1616.31         0.161495
         1617.92         0.154409
         1619.54         0.146911
         1621.15         0.139238
         1622.76         0.131566
         1624.37         0.124006
         1625.98         0.116615
          1627.6         0.109412
         1629.21         0.102396
         1630.82         0.095566
         1632.43         0.088928
         1634.04         0.082503
         1635.65         0.076321
         1637.27         0.070419
         1638.88         0.064831
         1640.49         0.059584
          1642.1          0.05469
         1643.71         0.050148
         1645.32         0.045947
         1646.94         0.042072
         1648.55         0.038503
         1650.16         0.035222
         1651.77         0.032209
         1653.38          0.02944
         1654.99         0.026887
         1656.61         0.024515
         1658.22         0.022283
         1659.83         0.020157
         1661.44         0.018111
         1663.05         0.016136
         1664.66         0.014243
         1666.28         0.012453
         1667.89         0.010792
          1669.5          0.00928
         1671.11         0.007923
         1672.72         0.006717
         1674.34         0.005657
         1675.95         0.004741
         1677.56          0.00398
         1679.17         0.003387
         1680.78         0.002976
         1682.39         0.002748
         1684.01         0.002682
         1685.62         0.002735
         1687.23         0.002845
         1688.84          0.00294
         1690.45         0.002949
         1692.06          0.00282
         1693.68         0.002528
         1695.29         0.002082
          1696.9         0.001519
         1698.51         0.000895
         1700.12         0.000265
         1701.73        -0.000329
         1703.35        -0.000872
         1704.96        -0.001374
         1706.57        -0.001864
         1708.18        -0.002378
         1709.79        -0.002939
          1711.4        -0.003551
         1713.02        -0.004194
         1714.63         -0.00483
         1716.24        -0.005412
         1717.85        -0.005896
         1719.46        -0.006255
         1721.08        -0.006485
         1722.69        -0.006613
          1724.3        -0.006682
         1725.91        -0.006747
         1727.52        -0.006852
         1729.13        -0.007026
         1730.75        -0.007277
         1732.36        -0.007594
         1733.97        -0.007961
         1735.58        -0.008363
         1737.19        -0.008785
          1738.8        -0.009218
         1740.42        -0.009648
         1742.03        -0.010052
         1743.64        -0.010398
         1745.25        -0.010652
         1746.86        -0.010787
         1748.47        -0.010787
         1750.09        -0.010662
          1751.7        -0.010443
         1753.31        -0.010184
         1754.92        -0.009952
         1756.53        -0.009812
         1758.14         -0.00981
         1759.76        -0.009961
         1761.37        -0.010234
         1762.98        -0.010558
         1764.59        -0.010831
          1766.2        -0.010947
         1767.81        -0.010816
         1769.43        -0.010393
         1771.04        -0.009685
         1772.65        -0.008753
         1774.26        -0.007688
         1775.87        -0.006587
         1777.49        -0.005535
          1779.1        -0.004591
         1780.71         -0.00379
         1782.32        -0.003151
         1783.93        -0.002692
         1785.54        -0.002438
         1787.16        -0.002408
         1788.77        -0.002609
         1790.38         -0.00301
         1791.99        -0.003537
          1793.6        -0.004076
         1795.21        -0.004501
         1796.83        -0.004706
         1798.44        -0.004638
         1800.05        -0.004307
         1801.66        -0.003781
         1803.27        -0.003163
         1804.88        -0.002553
          1806.5         -0.00202
         1808.11        -0.001594
         1809.72        -0.001265
         1811.33        -0.001005
         1812.94         -0.00079
         1814.55        -0.000622
         1816.17        -0.000525
         1817.78        -0.000538
         1819.39        -0.000694
            1821        -0.001002
         1822.61        -0.001438
         1824.23        -0.001942
         1825.84        -0.002429
         1827.45        -0.002801
         1829.06        -0.002961
         1830.67        -0.002829
         1832.28        -0.002346
          1833.9        -0.001483
         1835.51        -0.000239
         1837.12         0.001357
         1838.73         0.003248
         1840.34         0.005356
         1841.95         0.007584
         1843.57         0.009823
         1845.18         0.011954
         1846.79         0.013863
          1848.4         0.015451
         1850.01         0.016657
         1851.62         0.017472
         1853.24         0.017946
         1854.85         0.018177
         1856.46         0.018296
         1858.07         0.018429
         1859.68         0.018683
         1861.29         0.019118
         1862.91         0.019752
         1864.52         0.020564
         1866.13         0.021519
         1867.74         0.022585
         1869.35         0.023741
         1870.97         0.024989
         1872.58         0.026337
         1874.19         0.027792
          1875.8         0.029339
         1877.41         0.030926
         1879.02         0.032453
         1880.64         0.033773
         1882.25         0.034703
         1883.86         0.035042
         1885.47         0.034586
         1887.08         0.033139
         1888.69         0.030523
         1890.31         0.026571
         1891.92         0.021126
         1893.53         0.014026
         1895.14         0.005096
         1896.75        -0.005867
         1898.36        -0.019081
         1899.98         -0.03476
         1901.59        -0.053057
          1903.2        -0.074001
         1904.81         -0.09742
         1906.42        -0.122885
         1908.03        -0.149681
         1909.65        -0.176825
         1911.26        -0.203144
         1912.87        -0.227397
         1914.48        -0.248438
         1916.09        -0.265364
         1917.71        -0.277621
         1919.32        -0.285044
         1920.93         -0.28782
         1922.54        -0.286403
         1924.15        -0.281402
         1925.76        -0.273482
         1927.38        -0.263289
         1928.99         -0.25141
          1930.6        -0.238367
         1932.21        -0.224625
         1933.82        -0.210607
         1935.43        -0.196708
         1937.05        -0.183283
         1938.66        -0.170626
         1940.27        -0.158947
         1941.88        -0.148342
         1943.49        -0.138799
          1945.1        -0.130212
         1946.72        -0.122415
         1948.33         -0.11522
         1949.94        -0.108459
         1951.55        -0.102011
         1953.16        -0.095819
         1954.77        -0.089889
         1956.39         -0.08427
            1958        -0.079023
         1959.61        -0.074195
         1961.22        -0.069801
         1962.83        -0.065816
         1964.44        -0.062192
         1966.06         -0.05887
         1967.67        -0.055791
         1969.28        -0.052905
         1970.89         -0.05017
          1972.5        -0.047557
         1974.12        -0.045055
         1975.73        -0.042675
         1977.34        -0.040446
         1978.95        -0.038406
         1980.56        -0.036581
         1982.17        -0.034979
         1983.79        -0.033576
          1985.4        -0.032322
         1987.01        -0.031146
         1988.62        -0.029961
         1990.23        -0.028675
         1991.84        -0.027208
         1993.46        -0.025518
         1995.07        -0.023622
         1996.68        -0.021616
         1998.29        -0.019668
          1999.9        -0.017991
         2001.51        -0.016789
         2003.13         -0.01621
         2004.74        -0.016301
         2006.35        -0.016995
         2007.96        -0.018121
         2009.57        -0.019441
         2011.18        -0.020697
          2012.8        -0.021661
         2014.41        -0.022179
         2016.02          -0.0222
         2017.63        -0.021782
         2019.24        -0.021072
         2020.86        -0.020262
         2022.47        -0.019537
         2024.08         -0.01903
         2025.69        -0.018791
          2027.3        -0.018791
         2028.91        -0.018936
         2030.53        -0.019092
         2032.14        -0.019109
         2033.75        -0.018844
         2035.36        -0.018173
         2036.97        -0.017017
         2038.58        -0.015363
          2040.2        -0.013278
         2041.81        -0.010918
         2043.42        -0.008504
         2045.03        -0.006279
         2046.64        -0.004466
         2048.25         -0.00322
         2049.87        -0.002603
         2051.48        -0.002588
         2053.09        -0.003071
          2054.7        -0.003903
         2056.31        -0.004917
         2057.92        -0.005947
         2059.54        -0.006858
         2061.15         -0.00756
         2062.76        -0.008031
         2064.37         -0.00832
         2065.98        -0.008541
          2067.6        -0.008841
         2069.21        -0.009356
         2070.82        -0.010172
         2072.43        -0.011304
         2074.04        -0.012692
         2075.65        -0.014214
         2077.27        -0.015716
         2078.88        -0.017028
         2080.49        -0.017985
          2082.1        -0.018444
         2083.71        -0.018302
         2085.32        -0.017523
         2086.94        -0.016155
         2088.55        -0.014333
         2090.16        -0.012262
         2091.77        -0.010178
         2093.38          -0.0083
         2094.99         -0.00679
         2096.61        -0.005732
         2098.22        -0.005127
         2099.83        -0.004917
         2101.44        -0.005001
         2103.05        -0.005258
         2104.66        -0.005556
         2106.28        -0.005762
         2107.89        -0.005747
          2109.5         -0.00542
         2111.11        -0.004746
         2112.72        -0.003776
         2114.34        -0.002646
         2115.95        -0.001557
         2117.56        -0.000733
         2119.17        -0.000366
         2120.78        -0.000581
         2122.39        -0.001407
         2124.01        -0.002782
         2125.62         -0.00457
         2127.23        -0.006585
         2128.84        -0.008615
         2130.45        -0.010441
         2132.06        -0.011859
         2133.68        -0.012714
         2135.29        -0.012928
          2136.9        -0.012529
         2138.51        -0.011653
         2140.12        -0.010524
         2141.73        -0.009403
         2143.35        -0.008531
         2144.96        -0.008079
         2146.57        -0.008117
         2148.18        -0.008618
         2149.79        -0.009479
          2151.4        -0.010552
         2153.02        -0.011667
         2154.63        -0.012645
         2156.24        -0.013305
         2157.85        -0.013473
         2159.46        -0.013009
         2161.08        -0.011834
         2162.69        -0.009964
          2164.3        -0.007527
         2165.91        -0.004751
         2167.52        -0.001928
         2169.13         0.000641
         2170.75         0.002702
         2172.36         0.004089
         2173.97         0.004745
         2175.58         0.004707
         2177.19         0.004083
          2178.8         0.003022
         2180.42         0.001689
         2182.03         0.000255
         2183.64        -0.001111
         2185.25        -0.002256
         2186.86        -0.003063
         2188.47        -0.003475
         2190.09        -0.003527
          2191.7        -0.003337
         2193.31        -0.003093
         2194.92        -0.003002
         2196.53        -0.003245
         2198.14        -0.003931
         2199.76        -0.005082
         2201.37        -0.006643
         2202.98        -0.008501
         2204.59        -0.010514
          2206.2        -0.012523
         2207.81        -0.014361
         2209.43        -0.015854
         2211.04        -0.016828
         2212.65        -0.017137
         2214.26        -0.016699
         2215.87         -0.01553
         2217.49         -0.01376
          2219.1        -0.011614
         2220.71         -0.00937
         2222.32        -0.007296
         2223.93        -0.005598
         2225.54        -0.004379
         2227.16        -0.003639
         2228.77        -0.003304
         2230.38        -0.003268
         2231.99        -0.003431
          2233.6        -0.003718
         2235.21        -0.004068
         2236.83        -0.004411
         2238.44        -0.004643
         2240.05        -0.004632
         2241.66        -0.004243
         2243.27        -0.003383
         2244.88        -0.002055
          2246.5        -0.000377
         2248.11         0.001424
         2249.72         0.003061
         2251.33         0.004248
         2252.94          0.00477
         2254.55          0.00452
         2256.17         0.003515
         2257.78         0.001867
         2259.39        -0.000246
            2261         -0.00262
         2262.61        -0.005046
         2264.23        -0.007309
         2265.84        -0.009185
         2267.45        -0.010449
         2269.06        -0.010902
         2270.67        -0.010411
         2272.28        -0.008957
          2273.9        -0.006666
         2275.51          -0.0038
         2277.12        -0.000728
         2278.73         0.002145
         2280.34         0.004449
         2281.95         0.005916
         2283.57         0.006412
         2285.18          0.00595
         2286.79         0.004658
          2288.4         0.002739
         2290.01         0.000435
         2291.62        -0.002005
         2293.24        -0.004324
         2294.85         -0.00627
         2296.46        -0.007597
         2298.07        -0.008097
         2299.68        -0.007639
         2301.29        -0.006207
         2302.91        -0.003926
         2304.52        -0.001053
         2306.13         0.002064
         2307.74         0.005052
         2309.35         0.007584
         2310.97         0.009437
         2312.58         0.010522
         2314.19         0.010875
          2315.8         0.010624
         2317.41         0.009934
         2319.02          0.00896
         2320.64         0.007829
         2322.25         0.006641
         2323.86         0.005491
         2325.47         0.004494
         2327.08         0.003788
         2328.69          0.00351
         2330.31         0.003759
         2331.92          0.00455
         2333.53         0.005793
         2335.14         0.007295
         2336.75         0.008805
         2338.36         0.010067
         2339.98         0.010882
         2341.59         0.011147
          2343.2         0.010863
         2344.81         0.010115
         2346.42         0.009032
         2348.03         0.007749
         2349.65         0.006388
         2351.26         0.005063
         2352.87         0.003896
         2354.48          0.00304
         2356.09         0.002669
         2357.71         0.002961
         2359.32         0.004044
         2360.93         0.005946
         2362.54         0.008567
         2364.15         0.011678
         2365.76         0.014953
         2367.38         0.018034
         2368.99         0.020603
          2370.6         0.022444
         2372.21         0.023473
         2373.82         0.023742
         2375.43         0.023398
         2377.05         0.022637
         2378.66         0.021654
         2380.27         0.020616
         2381.88         0.019672
         2383.49         0.018972
          2385.1         0.018692
         2386.72          0.01904
         2388.33         0.020232
         2389.94         0.022441
         2391.55         0.025744
         2393.16         0.030076
         2394.77         0.035226
         2396.39         0.040853
            2398         0.046547
         2399.61         0.051899
         2401.22         0.056573
         2402.83         0.060358
         2404.44         0.063199
         2406.06         0.065179
         2407.67         0.066484
         2409.28         0.067344
         2410.89         0.067989
          2412.5         0.068617
         2414.12         0.069401
         2415.73         0.070506
         2417.34         0.072118
         2418.95         0.074441
         2420.56         0.077678
         2422.17         0.081988
         2423.79         0.087432
          2425.4         0.093949
         2427.01         0.101347
         2428.62         0.109347
         2430.23         0.117643
         2431.84         0.125974
         2433.46         0.134186
         2435.07         0.142265
         2436.68         0.150328
         2438.29         0.158583
          2439.9         0.167268
         2441.51         0.176595
         2443.13         0.186719
         2444.74         0.197743
         2446.35         0.209755
         2447.96         0.222874
         2449.57         0.237284
         2451.18         0.253245
          2452.8         0.271058
         2454.41         0.291018
         2456.02         0.313351
         2457.63         0.338177
         2459.24           0.3655
         2460.86         0.395249
         2462.47         0.427329
         2464.08         0.461693
         2465.69           0.4984
          2467.3         0.537639
         2468.91         0.579712
         2470.53         0.624981
         2472.14         0.673787
         2473.75         0.726371
         2475.36         0.782802
         2476.97         0.842944
         2478.58         0.906426
          2480.2         0.972623
         2481.81          1.04061
         2483.42          1.10908
         2485.03          1.17622
         2486.64          1.23962
         2488.25          1.29619
         2489.87          1.34216
         2491.48          1.37328
         2493.09          1.38516
          2494.7          1.37379
         2496.31          1.33613
         2497.92          1.27073
         2499.54           1.1782
         2501.15          1.06137
         2502.76         0.925044
         2504.37         0.775447
         2505.98         0.619404
          2507.6         0.463505
         2509.21         0.313414
         2510.82         0.173479
         2512.43         0.046637
         2514.04         -0.06545
         2515.65        -0.162132
         2517.27        -0.243498
         2518.88        -0.310162
         2520.49        -0.363118
          2522.1        -0.403646
         2523.71        -0.433249
         2525.32        -0.453569
         2526.94        -0.466302
         2528.55        -0.473085
         2530.16        -0.475402
         2531.77        -0.474512
         2533.38        -0.471408
         2534.99        -0.466826
         2536.61        -0.461278
         2538.22        -0.455101
         2539.83          -0.4485
         2541.44        -0.441587
         2543.05        -0.434392
         2544.66        -0.426874
         2546.28        -0.418925
         2547.89        -0.410384
          2549.5        -0.401066
         2551.11        -0.390797
         2552.72        -0.379464
         2554.34        -0.367057
         2555.95        -0.353696
         2557.56        -0.339639
         2559.17        -0.325268
         2560.78        -0.311039
         2562.39        -0.297421
         2564.01        -0.284828
         2565.62        -0.273559
         2567.23        -0.263766
         2568.84        -0.255455
         2570.45        -0.248529
         2572.06        -0.242839
         2573.68        -0.238236
         2575.29        -0.234607
          2576.9        -0.231856
         2578.51        -0.229877
         2580.12        -0.228495
         2581.73        -0.227441
         2583.35        -0.226345
         2584.96         -0.22478
         2586.57        -0.222335
         2588.18        -0.218701
         2589.79        -0.213742
          2591.4        -0.207538
         2593.02        -0.200378
         2594.63        -0.192711
         2596.24         -0.18507
         2597.85        -0.177973
         2599.46        -0.171838
         2601.08        -0.166918
         2602.69        -0.163271
          2604.3        -0.160777
         2605.91        -0.159189
         2607.52        -0.158203
         2609.13        -0.157528
         2610.75        -0.156924
         2612.36        -0.156217
         2613.97        -0.155273
         2615.58        -0.153967
         2617.19        -0.152162
          2618.8        -0.149704
         2620.42        -0.146449
         2622.03        -0.142304
         2623.64        -0.137275
         2625.25        -0.131497
         2626.86        -0.125239
         2628.47        -0.118883
         2630.09        -0.112872
          2631.7         -0.10764
         2633.31        -0.103535
         2634.92        -0.100761
         2636.53        -0.099344
         2638.14        -0.099151
         2639.76        -0.099941
         2641.37        -0.101441
         2642.98        -0.103408
         2644.59        -0.105658
          2646.2        -0.108053
         2647.81        -0.110462
         2649.43        -0.112706
         2651.04        -0.114537
         2652.65        -0.115648
         2654.26         -0.11572
         2655.87        -0.114496
         2657.49        -0.111847
          2659.1        -0.107825
         2660.71        -0.102672
         2662.32        -0.096794
         2663.93        -0.090706
         2665.54        -0.084946
         2667.16        -0.080006
         2668.77        -0.076249
         2670.38        -0.073866
         2671.99        -0.072861
          2673.6        -0.073078
         2675.21        -0.074251
         2676.83        -0.076079
         2678.44        -0.078284
         2680.05        -0.080649
         2681.66         -0.08301
         2683.27        -0.085224
         2684.88        -0.087125
          2686.5        -0.088495
         2688.11         -0.08907
         2689.72        -0.088584
         2691.33        -0.086835
         2692.94        -0.083749
         2694.55        -0.079428
         2696.17        -0.074147
         2697.78        -0.068319
         2699.39        -0.062431
            2701        -0.056973
         2702.61        -0.052367
         2704.23        -0.048918
         2705.84        -0.046783
         2707.45         -0.04597
         2709.06        -0.046355
         2710.67        -0.047732
         2712.28        -0.049861
          2713.9        -0.052513
         2715.51        -0.055506
         2717.12        -0.058699
         2718.73        -0.061969
         2720.34         -0.06518
         2721.95        -0.068145
         2723.57        -0.070619
         2725.18        -0.072315
         2726.79        -0.072951
          2728.4         -0.07231
         2730.01        -0.070299
         2731.62        -0.066994
         2733.24        -0.062651
         2734.85        -0.057688
         2736.46        -0.052626
         2738.07        -0.048007
         2739.68        -0.044288
         2741.29        -0.041757
         2742.91        -0.040475
         2744.52        -0.040281
         2746.13        -0.040857
         2747.74        -0.041831
         2749.35        -0.042888
         2750.97         -0.04386
         2752.58        -0.044744
         2754.19        -0.045665
          2755.8        -0.046786
         2757.41        -0.048201
         2759.02        -0.049848
         2760.64         -0.05149
         2762.25        -0.052749
         2763.86        -0.053207
         2765.47        -0.052521
         2767.08        -0.050533
         2768.69         -0.04732
         2770.31        -0.043195
         2771.92        -0.038642
         2773.53        -0.034216
         2775.14         -0.03043
         2776.75        -0.027661
         2778.36        -0.026089
         2779.98        -0.025693
         2781.59        -0.026284
          2783.2        -0.027589
         2784.81        -0.029332
         2786.42        -0.031313
         2788.03        -0.033439
         2789.65        -0.035703
         2791.26        -0.038123
         2792.87        -0.040663
         2794.48        -0.043185
         2796.09        -0.045435
         2797.71        -0.047089
         2799.32        -0.047828
         2800.93        -0.047432
         2802.54        -0.045853
         2804.15        -0.043243
         2805.76        -0.039946
         2807.38        -0.036425
         2808.99        -0.033172
          2810.6        -0.030601
         2812.21        -0.028968
         2813.82         -0.02832
         2815.43          -0.0285
         2817.05        -0.029199
         2818.66        -0.030053
         2820.27        -0.030746
         2821.88        -0.031107
         2823.49        -0.031152
          2825.1        -0.031063
         2826.72        -0.031106
         2828.33        -0.031518
         2829.94        -0.032398
         2831.55        -0.033649
         2833.16         -0.03498
         2834.77        -0.035973
         2836.39        -0.036194
            2838        -0.035309
         2839.61        -0.033187
         2841.22        -0.029951
         2842.83        -0.025967
         2844.44        -0.021778
         2846.06        -0.017989
         2847.67        -0.015143
         2849.28          -0.0136
         2850.89        -0.013476
          2852.5        -0.014625
         2854.12        -0.016696
         2855.73        -0.019224
         2857.34        -0.021754
         2858.95        -0.023945
         2860.56        -0.025644
         2862.17        -0.026886
         2863.79        -0.027842
          2865.4        -0.028717
         2867.01        -0.029647
         2868.62        -0.030623
         2870.23        -0.031479
         2871.84        -0.031933
         2873.46        -0.031674
         2875.07        -0.030456
         2876.68        -0.028169
         2878.29        -0.024887
          2879.9        -0.020865
         2881.51        -0.016509
         2883.13        -0.012309
         2884.74        -0.008753
         2886.35        -0.006232
         2887.96         -0.00496
         2889.57        -0.004941
         2891.18        -0.005986
          2892.8        -0.007776
         2894.41        -0.009963
         2896.02         -0.01225
         2897.63        -0.014449
         2899.24        -0.016492
         2900.86        -0.018404
         2902.47        -0.020251
         2904.08        -0.022079
         2905.69        -0.023861
          2907.3        -0.025472
         2908.91        -0.026704
         2910.53        -0.027309
         2912.14        -0.027069
         2913.75        -0.025867
         2915.36        -0.023722
         2916.97        -0.020797
         2918.58        -0.017368
          2920.2        -0.013771
         2921.81        -0.010347
         2923.42        -0.007398
         2925.03        -0.005144
         2926.64        -0.003709
         2928.25        -0.003116
         2929.87        -0.003298
         2931.48        -0.004134
         2933.09        -0.005485
          2934.7        -0.007232
         2936.31        -0.009289
         2937.92        -0.011579
         2939.54        -0.014002
         2941.15        -0.016392
         2942.76        -0.018496
         2944.37        -0.020007
         2945.98        -0.020624
          2947.6         -0.02014
         2949.21        -0.018512
         2950.82        -0.015889
         2952.43        -0.012593
         2954.04        -0.009053
         2955.65        -0.005724
         2957.27        -0.003008
         2958.88        -0.001183
         2960.49        -0.000355
          2962.1        -0.000439
         2963.71        -0.001173
         2965.32        -0.002172
         2966.94        -0.003031
         2968.55        -0.003431
         2970.16        -0.003239
         2971.77        -0.002548
         2973.38        -0.001649
         2974.99        -0.000926
         2976.61        -0.000734
         2978.22        -0.001269
         2979.83        -0.002497
         2981.44        -0.004152
         2983.05          -0.0058
         2984.66        -0.006944
         2986.28        -0.007137
         2987.89        -0.006078
          2989.5        -0.003669
         2991.11           -4e-05
         2992.72         0.004464
         2994.34         0.009342
         2995.95         0.014006
         2997.56         0.017894
         2999.17         0.020569
         3000.78           0.0218
         3002.39         0.021592
         3004.01         0.020152
         3005.62         0.017819
         3007.23         0.014963
         3008.84         0.011916
         3010.45         0.008935
         3012.06         0.006213
         3013.68         0.003916
         3015.29         0.002214
          3016.9         0.001289
         3018.51         0.001316
         3020.12         0.002422
         3021.73         0.004646
         3023.35         0.007906
         3024.96         0.012006
         3026.57          0.01665
         3028.18         0.021482
         3029.79         0.026126
          3031.4         0.030231
         3033.02          0.03352
         3034.63         0.035843
         3036.24         0.037213
         3037.85         0.037821
         3039.46         0.037995
         3041.08         0.038125
         3042.69         0.038546
          3044.3         0.039445
         3045.91         0.040806
         3047.52         0.042435
         3049.13         0.044047
         3050.75         0.045384
         3052.36         0.046331
         3053.97         0.046976
         3055.58         0.047606
         3057.19         0.048642
          3058.8         0.050532
         3060.42         0.053654
         3062.03         0.058242
         3063.64         0.064351
         3065.25         0.071855
         3066.86         0.080461
         3068.47         0.089744
         3070.09         0.099192
          3071.7         0.108272
         3073.31         0.116512
         3074.92         0.123584
         3076.53         0.129367
         3078.14         0.133962
         3079.76         0.137654
         3081.37         0.140837
         3082.98         0.143926
         3084.59         0.147299
          3086.2         0.151283
         3087.81         0.156193
         3089.43         0.162382
         3091.04         0.170268
         3092.65         0.180328
         3094.26         0.193021
         3095.87           0.2087
         3097.49         0.227518
          3099.1         0.249392
         3100.71         0.274009
         3102.32         0.300903
         3103.93         0.329556
         3105.54         0.359499
         3107.16         0.390403
         3108.77         0.422134
         3110.38         0.454772
         3111.99         0.488616
          3113.6         0.524147
         3115.21         0.561981
         3116.83         0.602777
         3118.44         0.647127
         3120.05         0.695426
         3121.66         0.747759
         3123.27         0.803812
         3124.88         0.862847
          3126.5         0.923701
         3128.11         0.984831
         3129.72          1.04434
         3131.33          1.09998
         3132.94          1.14916
         3134.55          1.18891
         3136.17          1.21595
         3137.78          1.22686
         3139.39          1.21839
            3141          1.18795
         3142.61          1.13409
         3144.23            1.057
         3145.84         0.958783
         3147.45         0.843333
         3149.06          0.71598
         3150.67         0.582794
         3152.28          0.44981
          3153.9         0.322306
         3155.51         0.204306
         3157.12         0.098367
         3158.73         0.005636
         3160.34        -0.073879
         3161.95        -0.140947
         3163.57        -0.196734
         3165.18        -0.242498
         3166.79         -0.27938
          3168.4        -0.308308
         3170.01        -0.329999
         3171.62        -0.345016
         3173.24        -0.353874
         3174.85        -0.357134
         3176.46        -0.355488
         3178.07        -0.349794
         3179.68        -0.341072
         3181.29        -0.330437
         3182.91        -0.319001
         3184.52        -0.307747
         3186.13         -0.29741
         3187.74          -0.2884
         3189.35        -0.280779
         3190.97        -0.274319
         3192.58        -0.268613
         3194.19        -0.263215
          3195.8        -0.257772
         3197.41         -0.25209
         3199.02        -0.246138
         3200.64         -0.23998
         3202.25         -0.23367
         3203.86        -0.227176
         3205.47        -0.220344
         3207.08        -0.212944
         3208.69        -0.204766
         3210.31        -0.195729
         3211.92         -0.18596
         3213.53        -0.175815
         3215.14        -0.165831
         3216.75        -0.156622
         3218.36        -0.148756
         3219.98        -0.142637
         3221.59        -0.138429
          3223.2        -0.136036
         3224.81        -0.135134
         3226.42        -0.135246
         3228.03        -0.135835
         3229.65        -0.136398
         3231.26        -0.136532
         3232.87        -0.135974
         3234.48        -0.134599
         3236.09        -0.132398
         3237.71        -0.129427
         3239.32        -0.125768
         3240.93        -0.121488
         3242.54        -0.116618
         3244.15        -0.111169
         3245.76         -0.10515
         3247.38        -0.098613
         3248.99        -0.091677
          3250.6        -0.084542
         3252.21        -0.077475
         3253.82        -0.070786
         3255.43        -0.064785
         3257.05        -0.059741
         3258.66        -0.055825
         3260.27        -0.053064
         3261.88        -0.051304
         3263.49        -0.050209
          3265.1        -0.049317
         3266.72        -0.048138
         3268.33        -0.046275
         3269.94        -0.043515
         3271.55        -0.039869
         3273.16        -0.035526
         3274.77         -0.03077
         3276.39        -0.025861
            3278        -0.020953
         3279.61        -0.016048
         3281.22         -0.01101
         3282.83        -0.005628
         3284.44         0.000298
         3286.06         0.006868
         3287.67          0.01403
         3289.28         0.021575
         3290.89         0.029191
          3292.5         0.036552
         3294.12          0.04343
         3295.73         0.049785
         3297.34         0.055797
         3298.95         0.061845
         3300.56         0.068409
         3302.17         0.075938
         3303.79         0.084711
          3305.4         0.094741
         3307.01         0.105743
         3308.62         0.117184
         3310.23         0.128395
         3311.84         0.138724
         3313.46         0.147665
         3315.07         0.154949
         3316.68          0.16055
         3318.29         0.164637
          3319.9          0.16748
         3321.51         0.169357
         3323.13          0.17049
         3324.74         0.171027
         3326.35         0.171042
         3327.96         0.170564
         3329.57           0.1696
         3331.18         0.168156
          3332.8         0.166259
         3334.41         0.163965
         3336.02         0.161364
         3337.63         0.158562
         3339.24         0.155642
         3340.86         0.152631
         3342.47         0.149477
         3344.08         0.146057
         3345.69         0.142216
          3347.3         0.137817
         3348.91           0.1328
         3350.53         0.127219
         3352.14         0.121261
         3353.75         0.115249
         3355.36         0.109608
         3356.97         0.104816
         3358.58         0.101323
          3360.2         0.099467
         3361.81         0.099397
         3363.42         0.101021
         3365.03          0.10401
         3366.64         0.107842
         3368.25         0.111886
         3369.87         0.115513
         3371.48         0.118198
         3373.09           0.1196
          3374.7          0.11959
         3376.31         0.118242
         3377.92         0.115777
         3379.54         0.112495
         3381.15         0.108702
         3382.76         0.104681
         3384.37         0.100687
         3385.98         0.096978
          3387.6         0.093849
         3389.21         0.091635
         3390.82         0.090694
         3392.43         0.091341
         3394.04         0.093777
         3395.65         0.098021
         3397.27         0.103866
         3398.88          0.11088
         3400.49         0.118441
          3402.1         0.125821
         3403.71         0.132293
         3405.32         0.137249
         3406.94         0.140304
         3408.55         0.141351
         3410.16         0.140569
         3411.77         0.138358
         3413.38         0.135234
         3414.99         0.131713
         3416.61         0.128215
         3418.22         0.125022
         3419.83           0.1223
         3421.44         0.120166
         3423.05         0.118761
         3424.66         0.118314
         3426.28         0.119145
         3427.89         0.121613
          3429.5         0.126022
         3431.11         0.132519
         3432.72         0.141004
         3434.34         0.151104
         3435.95         0.162202
         3437.56         0.173518
         3439.17         0.184229
         3440.78         0.193599
         3442.39         0.201093
         3444.01         0.206445
         3445.62         0.209669
         3447.23         0.211008
         3448.84         0.210854
         3450.45         0.209644
         3452.06         0.207795
         3453.68          0.20567
         3455.29         0.203592
          3456.9          0.20188
         3458.51         0.200879
         3460.12          0.20097
         3461.73         0.202536
         3463.35         0.205903
         3464.96          0.21126
         3466.57         0.218589
         3468.18          0.22762
         3469.79         0.237846
          3471.4         0.248577
         3473.02         0.259048
         3474.63          0.26854
         3476.24          0.27651
         3477.85         0.282673
         3479.46         0.287048
         3481.08         0.289931
         3482.69         0.291807
          3484.3         0.293229
         3485.91         0.294699
         3487.52         0.296586
         3489.13         0.299116
         3490.75         0.302411
         3492.36         0.306566
         3493.97         0.311723
         3495.58         0.318096
         3497.19         0.325948
          3498.8         0.335509
         3500.42         0.346876
         3502.03         0.359936
         3503.64         0.374334
         3505.25         0.389511
         3506.86         0.404797
         3508.47         0.419535
         3510.09          0.43321
          3511.7         0.445549
         3513.31          0.45656
         3514.92         0.466507
         3516.53         0.475829
         3518.14         0.485012
         3519.76         0.494484
         3521.37         0.504545
         3522.98         0.515352
         3524.59         0.526979
          3526.2         0.539495
         3527.81         0.553048
         3529.43         0.567893
         3531.04          0.58437
         3532.65         0.602803
         3534.26         0.623382
         3535.87         0.646034
         3537.49         0.670347
          3539.1         0.695564
         3540.71         0.720651
         3542.32          0.74443
         3543.93         0.765734
         3545.54         0.783554
         3547.16         0.797134
         3548.77         0.805993
         3550.38         0.809861
         3551.99         0.808545
          3553.6         0.801759
         3555.21         0.788967
         3556.83         0.769265
         3558.44         0.741359
         3560.05         0.703603
         3561.66         0.654097
         3563.27          0.59079
         3564.88         0.511558
          3566.5         0.414246
         3568.11         0.296703
         3569.72         0.156865
         3571.33        -0.007049
         3572.94        -0.196178
         3574.55        -0.410505
         3576.17        -0.648244
         3577.78        -0.905285
         3579.39         -1.17487
            3581         -1.44768
         3582.61         -1.71249
         3584.23         -1.95731
         3585.84         -2.17082
         3587.45         -2.34389
         3589.06          -2.4706
         3590.67         -2.54882
         3592.28         -2.58003
          3593.9          -2.5686
         3595.51         -2.52084
         3597.12         -2.44396
         3598.73         -2.34521
         3600.34         -2.23122
         3601.95         -2.10772
         3603.57          -1.9794
         3605.18         -1.84998
         3606.79          -1.7223
          3608.4         -1.59854
         3610.01         -1.48028
         3611.62         -1.36867
         3613.24         -1.26444
         3614.85           -1.168
         3616.46         -1.07945
         3618.07         -0.99867
         3619.68        -0.925327
         3621.29        -0.858977
         3622.91        -0.799084
         3624.52        -0.745063
         3626.13        -0.696298
         3627.74        -0.652157
         3629.35        -0.612015
         3630.97        -0.575273
         3632.58        -0.541378
         3634.19        -0.509851
          3635.8        -0.480298
         3637.41        -0.452418
         3639.02        -0.426002
         3640.64        -0.400927
         3642.25        -0.377143
         3643.86        -0.354658
         3645.47        -0.333518
         3647.08        -0.313794
         3648.69        -0.295564
         3650.31        -0.278909
         3651.92        -0.263902
         3653.53        -0.250589
         3655.14        -0.238956
         3656.75        -0.228889
         3658.36        -0.220142
         3659.98        -0.212337
         3661.59        -0.205005
          3663.2        -0.197678
         3664.81        -0.189982
         3666.42        -0.181731
         3668.03        -0.172957
         3669.65        -0.163891
         3671.26        -0.154889
         3672.87        -0.146327
         3674.48        -0.138499
         3676.09         -0.13155
         3677.71        -0.125452
         3679.32        -0.120035
         3680.93        -0.115062
         3682.54        -0.110313
         3684.15        -0.105658
         3685.76        -0.101093
         3687.38        -0.096733
         3688.99        -0.092748
          3690.6        -0.089287
         3692.21        -0.086399
         3693.82        -0.083996
         3695.43        -0.081859
         3697.05        -0.079709
         3698.66        -0.077294
         3700.27        -0.074484
         3701.88        -0.071323
         3703.49        -0.068033
          3705.1         -0.06495
         3706.72        -0.062428
         3708.33        -0.060728
         3709.94        -0.059937
         3711.55        -0.059936
         3713.16         -0.06043
         3714.77        -0.061032
         3716.39        -0.061353
            3718        -0.061096
         3719.61         -0.06009
         3721.22        -0.058301
         3722.83        -0.055793
         3724.44        -0.052698
         3726.06        -0.049176
         3727.67        -0.045402
         3729.28         -0.04156
         3730.89        -0.037833
          3732.5        -0.034399
         3734.12        -0.031417
         3735.73        -0.029013
         3737.34        -0.027281
         3738.95        -0.026271
         3740.56        -0.025993
         3742.17        -0.026419
         3743.79         -0.02748
          3745.4        -0.029067
         3747.01        -0.031021
         3748.62        -0.033131
         3750.23        -0.035127
         3751.84        -0.036693
         3753.46        -0.037507
         3755.07        -0.037287
         3756.68        -0.035868
         3758.29        -0.033253
          3759.9        -0.029642
         3761.51        -0.025424
         3763.13         -0.02111
         3764.74        -0.017239
         3766.35        -0.014268
         3767.96         -0.01248
         3769.57        -0.011935
         3771.18        -0.012485
          3772.8        -0.013841
         3774.41        -0.015673
         3776.02        -0.017702
         3777.63         -0.01975
         3779.24        -0.021739
         3780.86        -0.023639
         3782.47          -0.0254
         3784.08          -0.0269
         3785.69        -0.027933
          3787.3        -0.028248
         3788.91        -0.027619
         3790.53        -0.025923
         3792.14        -0.023192
         3793.75        -0.019629
         3795.36         -0.01557
         3796.97        -0.011426
         3798.58        -0.007614
          3800.2        -0.004492
         3801.81        -0.002326
         3803.42        -0.001261
         3805.03        -0.001311
         3806.64        -0.002352
         3808.25        -0.004129
         3809.87        -0.006283
         3811.48        -0.008408
         3813.09        -0.010135
          3814.7        -0.011212
         3816.31        -0.011574
         3817.92        -0.011349
         3819.54         -0.01082
         3821.15        -0.010327
         3822.76        -0.010165
         3824.37        -0.010489
         3825.98        -0.011277
          3827.6        -0.012342
         3829.21        -0.013402
         3830.82        -0.014169
         3832.43        -0.014431
         3834.04        -0.014088
         3835.65         -0.01316
         3837.27         -0.01175
         3838.88        -0.010003
         3840.49        -0.008067
          3842.1         -0.00608
         3843.71         -0.00416
         3845.32         -0.00241
         3846.94        -0.000927
         3848.55         0.000195
         3850.16         0.000866
         3851.77         0.001004
         3853.38         0.000548
         3854.99        -0.000531
         3856.61        -0.002212
         3858.22        -0.004412
         3859.83        -0.006963
         3861.44        -0.009613
         3863.05        -0.012027
         3864.66        -0.013825
         3866.28        -0.014639
         3867.89        -0.014191
          3869.5        -0.012365
         3871.11        -0.009254
         3872.72        -0.005162
         3874.34        -0.000561
         3875.95         0.004003
         3877.56         0.008003
         3879.17         0.011028
         3880.78         0.012849
         3882.39         0.013434
         3884.01         0.012935
         3885.62          0.01163
         3887.23         0.009865
         3888.84         0.007981
         3890.45         0.006266
         3892.06         0.004914
         3893.68         0.004009
         3895.29         0.003528
          3896.9         0.003366
         3898.51         0.003375
         3900.12          0.00342
         3901.73         0.003415
         3903.35         0.003346
         3904.96         0.003267
         3906.57         0.003269
         3908.18         0.003431
         3909.79         0.003789
          3911.4         0.004311
         3913.02          0.00491
         3914.63         0.005464
         3916.24         0.005859
         3917.85         0.006009
         3919.46         0.005881
         3921.08         0.005487
         3922.69         0.004873
          3924.3         0.004106
         3925.91          0.00325
         3927.52         0.002352
         3929.13         0.001432
         3930.75         0.000482
         3932.36        -0.000514
         3933.97        -0.001559
         3935.58        -0.002601
         3937.19         -0.00351
          3938.8        -0.004074
         3940.42        -0.004029
         3942.03        -0.003127
         3943.64        -0.001211
         3945.25         0.001723
         3946.86         0.005501
         3948.47         0.009793
         3950.09         0.014169
          3951.7         0.018186
         3953.31         0.021454
         3954.92         0.023701
         3956.53         0.024802
         3958.14         0.024787
         3959.76         0.023827
         3961.37         0.022194
         3962.98           0.0202
         3964.59         0.018131
          3966.2         0.016179
         3967.81         0.014414
         3969.43         0.012793
         3971.04         0.011209
         3972.65         0.009562
         3974.26         0.007831
         3975.87         0.006105
         3977.49          0.00459
          3979.1         0.003561
         3980.71         0.003301
         3982.32         0.004036
         3983.93         0.005878
         3985.54         0.008788
         3987.16         0.012567
         3988.77         0.016879
         3990.38         0.021301
         3991.99         0.025388
          3993.6         0.028747
         3995.21         0.031101
         3996.83          0.03232
         3998.44          0.03242
         4000.05         0.031535
         4001.66         0.029869
         4003.27          0.02764
         4004.88         0.025033
          4006.5         0.022181
         4008.11         0.019163
         4009.72         0.016038
         4011.33         0.012887
         4012.94         0.009853
         4014.55         0.007159
         4016.17         0.005092
         4017.78         0.003958
         4019.39         0.004013
            4021         0.005409
         4022.61         0.008146
         4024.23         0.012054
         4025.84         0.016808
         4027.45          0.02197
         4029.06          0.02705
         4030.67         0.031593
         4032.28          0.03525
          4033.9         0.037841
         4035.51         0.039364
         4037.12         0.039977
         4038.73         0.039933
         4040.34         0.039504
         4041.95         0.038905
         4043.57         0.038254
         4045.18         0.037556
         4046.79         0.036745
          4048.4         0.035743
         4050.01         0.034529
         4051.62         0.033197
         4053.24         0.031965
         4054.85         0.031143
         4056.46         0.031059
         4058.07         0.031978
         4059.68         0.034024
         4061.29         0.037138
         4062.91         0.041084
         4064.52         0.045492
         4066.13         0.049931
         4067.74         0.053989
         4069.35         0.057349
         4070.97         0.059832
         4072.58         0.061418
         4074.19         0.062225
          4075.8         0.062467
         4077.41         0.062396
         4079.02         0.062242
         4080.64          0.06217
         4082.25         0.062261
         4083.86         0.062523
         4085.47         0.062921
         4087.08         0.063421
         4088.69         0.064024
         4090.31         0.064793
         4091.92         0.065849
         4093.53         0.067355
         4095.14         0.069483
         4096.75         0.072374
         4098.36         0.076098
         4099.98         0.080633
         4101.59         0.085848
          4103.2         0.091512
         4104.81         0.097329
         4106.42         0.102985
         4108.03         0.108213
         4109.65         0.112843
         4111.26          0.11683
         4112.87         0.120244
         4114.48         0.123223
         4116.09         0.125914
         4117.71         0.128407
         4119.32         0.130708
         4120.93         0.132746
         4122.54         0.134406
         4124.15         0.135594
         4125.76         0.136286
         4127.38         0.136559
         4128.99         0.136584
          4130.6         0.136584
         4132.21         0.136761
         4133.82         0.137209
         4135.43         0.137845
         4137.05         0.138367
         4138.66         0.138246
         4140.27         0.136763
         4141.88         0.133076
         4143.49         0.126299
          4145.1         0.115584
         4146.72          0.10019
         4148.33         0.079528
         4149.94         0.053191
         4151.55         0.020964
         4153.16        -0.017148
         4154.77        -0.060889
         4156.39        -0.109684
            4158        -0.162565
         4159.61        -0.218104
         4161.22        -0.274409
         4162.83        -0.329203
         4164.44        -0.380013
         4166.06        -0.424443
         4167.67         -0.46047
         4169.28        -0.486705
         4170.89        -0.502542
          4172.5        -0.508185
         4174.12        -0.504536
         4175.73        -0.493011
         4177.34        -0.475316
         4178.95        -0.453238
         4180.56        -0.428464
         4182.17        -0.402462
         4183.79        -0.376406
          4185.4        -0.351145
         4187.01        -0.327219
         4188.62        -0.304904
         4190.23        -0.284285
         4191.84        -0.265325
         4193.46         -0.24794
         4195.07        -0.232034
         4196.68        -0.217515
         4198.29        -0.204281
          4199.9        -0.192193
         4201.51         -0.18106
         4203.13        -0.170634
         4204.74        -0.160638
         4206.35        -0.150809
         4207.96         -0.14094
         4209.57         -0.13093
         4211.18        -0.120794
          4212.8        -0.110664
         4214.41        -0.100764
         4216.02        -0.091371
         4217.63        -0.082766
         4219.24        -0.075189
         4220.86        -0.068797
         4222.47        -0.063644
         4224.08        -0.059672
         4225.69        -0.056733
          4227.3        -0.054624
         4228.91        -0.053135
         4230.53        -0.052088
         4232.14        -0.051355
         4233.75        -0.050856
         4235.36        -0.050531
         4236.97        -0.050304
         4238.58        -0.050062
          4240.2        -0.049646
         4241.81         -0.04887
         4243.42        -0.047566
         4245.03         -0.04562
         4246.64        -0.043018
         4248.25        -0.039851
         4249.87        -0.036313
         4251.48        -0.032666
         4253.09        -0.029194
          4254.7        -0.026156
         4256.31        -0.023738
         4257.92        -0.022023
         4259.54        -0.020986
         4261.15        -0.020507
         4262.76        -0.020412
         4264.37        -0.020525
         4265.98         -0.02071
          4267.6        -0.020899
         4269.21        -0.021091
         4270.82        -0.021328
         4272.43         -0.02165
         4274.04        -0.022056
         4275.65        -0.022476
         4277.27         -0.02277
         4278.88        -0.022759
         4280.49        -0.022265
          4282.1        -0.021165
         4283.71        -0.019429
         4285.32        -0.017137
         4286.94        -0.014471
         4288.55        -0.011687
         4290.16        -0.009071
         4291.77        -0.006885
         4293.38        -0.005328
         4294.99        -0.004503
         4296.61        -0.004407
         4298.22        -0.004946
         4299.83        -0.005971
         4301.44        -0.007318
         4303.05        -0.008848
         4304.66         -0.01047
         4306.28         -0.01213
         4307.89        -0.013791
          4309.5        -0.015397
         4311.11        -0.016854
         4312.72         -0.01802
         4314.34        -0.018727
         4315.95        -0.018819
         4317.56        -0.018197
         4319.17        -0.016851
         4320.78        -0.014877
         4322.39        -0.012468
         4324.01        -0.009881
         4325.62        -0.007395
         4327.23        -0.005266
         4328.84        -0.003677
         4330.45        -0.002712
         4332.06         -0.00235
         4333.68        -0.002478
         4335.29        -0.002932
          4336.9        -0.003544
         4338.51        -0.004188
         4340.12        -0.004804
         4341.73        -0.005396
         4343.35        -0.006013
         4344.96        -0.006703
         4346.57        -0.007478
         4348.18        -0.008286
         4349.79        -0.009011
          4351.4        -0.009499
         4353.02        -0.009602
         4354.63        -0.009223
         4356.24        -0.008349
         4357.85        -0.007067
         4359.46        -0.005545
         4361.08           -0.004
         4362.69        -0.002648
          4364.3        -0.001663
         4365.91        -0.001134
         4367.52        -0.001059
         4369.13        -0.001349
         4370.75        -0.001865
         4372.36        -0.002463
         4373.97        -0.003036
         4375.58        -0.003539
         4377.19        -0.003989
          4378.8         -0.00444
         4380.42        -0.004948
         4382.03        -0.005526
         4383.64        -0.006128
         4385.25        -0.006642
         4386.86        -0.006918
         4388.47        -0.006815
         4390.09        -0.006238
          4391.7         -0.00518
         4393.31        -0.003731
         4394.92        -0.002063
         4396.53        -0.000399
         4398.14         0.001034
         4399.76          0.00205
         4401.37         0.002541
         4402.98         0.002489
         4404.59         0.001958
          4406.2         0.001067
         4407.81         -5.2e-05
         4409.43        -0.001288
         4411.04        -0.002571
         4412.65        -0.003866
         4414.26        -0.005154
         4415.87        -0.006399
         4417.49        -0.007529
          4419.1        -0.008428
         4420.71        -0.008961
         4422.32        -0.009003
         4423.93        -0.008486
         4425.54        -0.007424
         4427.16        -0.005922
         4428.77        -0.004169
         4430.38        -0.002395
         4431.99        -0.000835
          4433.6         0.000323
         4435.21         0.000965
         4436.83         0.001071
         4438.44         0.000702
         4440.05         -2.9e-05
         4441.66        -0.000992
         4443.27         -0.00208
         4444.88        -0.003222
          4446.5        -0.004386
         4448.11        -0.005552
         4449.72        -0.006683
         4451.33        -0.007708
         4452.94        -0.008514
         4454.55        -0.008966
         4456.17        -0.008943
         4457.78        -0.008375
         4459.39        -0.007277
            4461        -0.005751
         4462.61        -0.003981
         4464.23        -0.002192
         4465.84        -0.000613
         4467.45         0.000571
         4469.06          0.00125
         4470.67         0.001404
         4472.28         0.001092
          4473.9         0.000427
         4475.51        -0.000465
         4477.12        -0.001478
         4478.73        -0.002543
         4480.34        -0.003628
         4481.95        -0.004711
         4483.57        -0.005758
         4485.18        -0.006698
         4486.79         -0.00742
          4488.4         -0.00779
         4490.01        -0.007689
         4491.62         -0.00705
         4493.24        -0.005884
         4494.85        -0.004291
         4496.46         -0.00245
         4498.07         -0.00058
         4499.68         0.001094
         4501.29         0.002393
         4502.91         0.003209
         4504.52         0.003521
         4506.13         0.003389
         4507.74         0.002919
         4509.35         0.002234
         4510.97         0.001433
         4512.58         0.000579
         4514.19        -0.000303
          4515.8        -0.001204
         4517.41        -0.002101
         4519.02        -0.002941
         4520.64        -0.003634
         4522.25        -0.004072
         4523.86        -0.004158
         4525.47        -0.003846
         4527.08        -0.003159
         4528.69        -0.002195
         4530.31        -0.001109
         4531.92         -7.8e-05
         4533.53          0.00074
         4535.14          0.00124
         4536.75          0.00139
         4538.36         0.001227
         4539.98         0.000834
         4541.59          0.00031
          4543.2        -0.000268
         4544.81        -0.000855
         4546.42         -0.00144
         4548.03        -0.002022
         4549.65         -0.00259
         4551.26        -0.003095
         4552.87        -0.003456
         4554.48         -0.00357
         4556.09        -0.003349
         4557.71        -0.002752
         4559.32        -0.001808
         4560.93        -0.000623
         4562.54          0.00064
         4564.15         0.001794
         4565.76         0.002668
         4567.38          0.00314
         4568.99         0.003159
          4570.6         0.002745
         4572.21         0.001972
         4573.82         0.000938
         4575.43        -0.000258
         4577.05         -0.00153
         4578.66        -0.002803
         4580.27        -0.004001
         4581.88        -0.005035
         4583.49        -0.005802
          4585.1        -0.006201
         4586.72        -0.006152
         4588.33        -0.005633
         4589.94        -0.004692
         4591.55        -0.003449
         4593.16        -0.002082
         4594.77        -0.000788
         4596.39         0.000255
            4598         0.000918
         4599.61         0.001147
         4601.22         0.000955
         4602.83          0.00041
         4604.44        -0.000394
         4606.06         -0.00136
         4607.67        -0.002406
         4609.28        -0.003458
         4610.89        -0.004441
          4612.5        -0.005269
         4614.12         -0.00584
         4615.73        -0.006052
         4617.34         -0.00583
         4618.95        -0.005147
         4620.56         -0.00405
         4622.17        -0.002655
         4623.79        -0.001133
          4625.4         0.000325
         4627.01         0.001545
         4628.62         0.002404
         4630.23         0.002846
         4631.84         0.002884
         4633.46          0.00258
         4635.07         0.002022
         4636.68         0.001297
         4638.29         0.000476
          4639.9         -0.00038
         4641.51        -0.001212
         4643.13        -0.001954
         4644.74        -0.002527
         4646.35        -0.002851
         4647.96        -0.002871
         4649.57        -0.002575
         4651.18        -0.002007
          4652.8        -0.001268
         4654.41         -0.00049
         4656.02          0.00019
         4657.63         0.000668
         4659.24         0.000888
         4660.86         0.000849
         4662.47         0.000593
         4664.08         0.000184
         4665.69        -0.000315
          4667.3        -0.000851
         4668.91        -0.001383
         4670.53        -0.001866
         4672.14        -0.002246
         4673.75        -0.002457
         4675.36        -0.002431
         4676.97        -0.002122
         4678.58        -0.001529
          4680.2        -0.000707
         4681.81         0.000234
         4683.42         0.001148
         4685.03         0.001888
         4686.64         0.002333
         4688.25         0.002414
         4689.87         0.002123
         4691.48         0.001503
         4693.09         0.000633
          4694.7        -0.000388
         4696.31        -0.001456
         4697.92        -0.002463
         4699.54        -0.003305
         4701.15         -0.00388
         4702.76        -0.004105
         4704.37        -0.003932
         4705.98        -0.003368
          4707.6        -0.002482
         4709.21        -0.001399
         4710.82        -0.000276
         4712.43         0.000727
         4714.04         0.001478
         4715.65         0.001898
         4717.27         0.001964
         4718.88         0.001706
         4720.49          0.00119
          4722.1         0.000495
         4723.71        -0.000292
         4725.32        -0.001087
         4726.94        -0.001806
         4728.55        -0.002371
         4730.16         -0.00272
         4731.77         -0.00282
         4733.38         -0.00268
         4734.99        -0.002358
         4736.61        -0.001946
         4738.22        -0.001553
         4739.83        -0.001278
         4741.44        -0.001188
         4743.05        -0.001307
         4744.66         -0.00162
         4746.28        -0.002083
         4747.89         -0.00264
          4749.5        -0.003225
         4751.11        -0.003775
         4752.72        -0.004221
         4754.34        -0.004499
         4755.95        -0.004556
         4757.56        -0.004366
         4759.17        -0.003942
         4760.78        -0.003339
         4762.39        -0.002648
         4764.01        -0.001974
         4765.62        -0.001411
         4767.23        -0.001023
         4768.84        -0.000832
         4770.45        -0.000823
         4772.06        -0.000954
         4773.68        -0.001169
         4775.29        -0.001407
          4776.9        -0.001607
         4778.51        -0.001706
         4780.12        -0.001647
         4781.73        -0.001384
         4783.35        -0.000902
         4784.96        -0.000223
         4786.57         0.000584
         4788.18         0.001417
         4789.79         0.002157
          4791.4         0.002695
         4793.02         0.002956
         4794.63         0.002911
         4796.24         0.002577
         4797.85          0.00201
         4799.46          0.00129
         4801.08          0.00051
         4802.69        -0.000239
          4804.3        -0.000876
         4805.91        -0.001346
         4807.52        -0.001625
         4809.13        -0.001731
         4810.75        -0.001717
         4812.36        -0.001659
         4813.97        -0.001636
         4815.58        -0.001714
         4817.19        -0.001925
          4818.8        -0.002267
         4820.42        -0.002711
         4822.03        -0.003201
         4823.64        -0.003672
         4825.25        -0.004057
         4826.86        -0.004297
         4828.47         -0.00435
         4830.09        -0.004204
          4831.7        -0.003883
         4833.31        -0.003442
         4834.92        -0.002955
         4836.53          -0.0025
         4838.14         -0.00214
         4839.76        -0.001906
         4841.37        -0.001799
         4842.98        -0.001789
         4844.59        -0.001827
          4846.2        -0.001855
         4847.81        -0.001813
         4849.43        -0.001652
         4851.04        -0.001342
         4852.65        -0.000884
         4854.26        -0.000315
         4855.87         0.000296
         4857.49          0.00086
          4859.1         0.001289
         4860.71         0.001513
         4862.32         0.001499
         4863.93         0.001255
         4865.54         0.000825
         4867.16         0.000282
         4868.77        -0.000295
         4870.38        -0.000832
         4871.99        -0.001274
          4873.6        -0.001599
         4875.21        -0.001815
         4876.83        -0.001959
         4878.44        -0.002079
         4880.05        -0.002221
         4881.66        -0.002411
         4883.27         -0.00265
         4884.88        -0.002914
          4886.5         -0.00316
         4888.11        -0.003334
         4889.72         -0.00339
         4891.33        -0.003301
         4892.94        -0.003062
         4894.55        -0.002701
         4896.17        -0.002267
         4897.78        -0.001823
         4899.39        -0.001429
            4901        -0.001131
         4902.61        -0.000951
         4904.23        -0.000891
         4905.84        -0.000934
         4907.45        -0.001055
         4909.06        -0.001232
         4910.67        -0.001449
         4912.28        -0.001704
          4913.9        -0.002007
         4915.51        -0.002372
         4917.12        -0.002814
         4918.73        -0.003333
         4920.34        -0.003912
         4921.95        -0.004516
         4923.57        -0.005102
         4925.18        -0.005629
         4926.79        -0.006065
          4928.4        -0.006399
         4930.01         -0.00664
         4931.62        -0.006812
         4933.24         -0.00694
         4934.85        -0.007043
         4936.46        -0.007124
         4938.07        -0.007171
         4939.68        -0.007162
         4941.29        -0.007072
         4942.91        -0.006889
         4944.52        -0.006618
         4946.13        -0.006284
         4947.74        -0.005926
         4949.35        -0.005588
         4950.97         -0.00531
         4952.58         -0.00512
         4954.19        -0.005029
          4955.8        -0.005038
         4957.41        -0.005138
         4959.02        -0.005321
         4960.64        -0.005579
         4962.25        -0.005908
         4963.86        -0.006301
         4965.47        -0.006747
         4967.08        -0.007228
         4968.69        -0.007723
         4970.31        -0.008211
         4971.92        -0.008676
         4973.53        -0.009116
         4975.14        -0.009542
         4976.75        -0.009973
         4978.36        -0.010431
         4979.98        -0.010935
         4981.59        -0.011495
          4983.2        -0.012118
         4984.81        -0.012805
         4986.42        -0.013557
         4988.03        -0.014375
         4989.65        -0.015263
         4991.26        -0.016222
         4992.87        -0.017251
         4994.48        -0.018347
         4996.09        -0.019505
         4997.71        -0.020719
         4999.32        -0.021985
         5000.93        -0.023302
         5002.54        -0.024674
         5004.15        -0.026107
         5005.76         -0.02761
         5007.38        -0.029193
         5008.99        -0.030864
          5010.6        -0.032633
         5012.21        -0.034504
         5013.82        -0.036484
         5015.43        -0.038573
         5017.05        -0.040768
         5018.66        -0.043052
         5020.27          -0.0454
         5021.88        -0.047767
         5023.49        -0.050095
          5025.1        -0.052309
         5026.72        -0.054326
         5028.33        -0.056058
         5029.94        -0.057421
         5031.55        -0.058345
         5033.16        -0.058777
         5034.77        -0.058689
         5036.39        -0.058084
            5038        -0.056987
         5039.61        -0.055452
         5041.22        -0.053548
         5042.83        -0.051355
         5044.44        -0.048955
         5046.06        -0.046429
         5047.67        -0.043845
         5049.28        -0.041264
         5050.89        -0.038732
          5052.5        -0.036284
         5054.12        -0.033946
         5055.73        -0.031732
         5057.34        -0.029651
         5058.95        -0.027707
         5060.56        -0.025898
         5062.17         -0.02422
         5063.79        -0.022667
          5065.4        -0.021232
         5067.01        -0.019907
         5068.62        -0.018685
         5070.23        -0.017558
         5071.84        -0.016518
         5073.46        -0.015559
         5075.07        -0.014672
         5076.68        -0.013853
         5078.29        -0.013096
          5079.9        -0.012394
         5081.51        -0.011744
         5083.13        -0.011141
         5084.74        -0.010581
         5086.35        -0.010059
         5087.96        -0.009574
         5089.57        -0.009122
         5091.18          -0.0087
          5092.8        -0.008306
         5094.41        -0.007937
         5096.02        -0.007591
         5097.63        -0.007267
         5099.24        -0.006963
         5100.86        -0.006678
         5102.47        -0.006409
         5104.08        -0.006157
         5105.69        -0.005918
          5107.3        -0.005693
         5108.91        -0.005481
         5110.53        -0.005281
         5112.14        -0.005091
         5113.75        -0.004911
         5115.36        -0.004741
         5116.97        -0.004579
         5118.58        -0.004426
          5120.2         -0.00428
         5121.81        -0.004142
         5123.42         -0.00401
         5125.03        -0.003884
         5126.64        -0.003764
         5128.25         -0.00365
         5129.87        -0.003542
         5131.48        -0.003438
         5133.09        -0.003338
          5134.7        -0.003243
         5136.31        -0.003152
         5137.92        -0.003065
         5139.54        -0.002982
         5141.15        -0.002902
         5142.76        -0.002825
         5144.37        -0.002752
         5145.98        -0.002681
          5147.6        -0.002613
         5149.21        -0.002548
         5150.82        -0.002485
         5152.43        -0.002425
         5154.04        -0.002367
         5155.65        -0.002311
         5157.27        -0.002257
         5158.88        -0.002205
         5160.49        -0.002155
          5162.1        -0.002107
         5163.71         -0.00206
         5165.32        -0.002015
         5166.94        -0.001972
         5168.55         -0.00193
         5170.16        -0.001889
         5171.77         -0.00185
         5173.38        -0.001812
         5174.99        -0.001775
         5176.61        -0.001739
         5178.22        -0.001705
         5179.83        -0.001671
         5181.44        -0.001639
         5183.05        -0.001607
         5184.66        -0.001577
         5186.28        -0.001547
         5187.89        -0.001519
          5189.5        -0.001491
         5191.11        -0.001464
         5192.72        -0.001438
         5194.34        -0.001412
         5195.95        -0.001387
         5197.56        -0.001363
         5199.17         -0.00134
         5200.78        -0.001317
         5202.39        -0.001295
         5204.01        -0.001273
         5205.62        -0.001252
         5207.23        -0.001232
         5208.84        -0.001212
         5210.45        -0.001192
         5212.06        -0.001173
         5213.68        -0.001155
         5215.29        -0.001137
          5216.9        -0.001119
         5218.51        -0.001102
         5220.12        -0.001086
         5221.73        -0.001069
         5223.35        -0.001054
         5224.96        -0.001038
         5226.57        -0.001023
         5228.18        -0.001008
         5229.79        -0.000994
          5231.4         -0.00098
         5233.02        -0.000966
         5234.63        -0.000952
         5236.24        -0.000939
         5237.85        -0.000926
         5239.46        -0.000914
         5241.08        -0.000901
         5242.69        -0.000889
          5244.3        -0.000877
         5245.91        -0.000866
         5247.52        -0.000855
         5249.13        -0.000844
         5250.75        -0.000833
         5252.36        -0.000822
         5253.97        -0.000812
         5255.58        -0.000802
         5257.19        -0.000792
          5258.8        -0.000782
         5260.42        -0.000772
         5262.03        -0.000763
         5263.64        -0.000754
         5265.25        -0.000745
         5266.86        -0.000736
         5268.47        -0.000727
         5270.09        -0.000719
          5271.7         -0.00071
         5273.31        -0.000702
         5274.92        -0.000694
         5276.53        -0.000686
         5278.14        -0.000678
         5279.76        -0.000671
         5281.37        -0.000663
         5282.98        -0.000656
         5284.59        -0.000649
          5286.2        -0.000642
         5287.81        -0.000635
         5289.43        -0.000628
         5291.04        -0.000621
         5292.65        -0.000615
         5294.26        -0.000608
         5295.87        -0.000602
         5297.49        -0.000596
          5299.1        -0.000589
         5300.71        -0.000583
         5302.32        -0.000577
         5303.93        -0.000572
         5305.54        -0.000566
         5307.16         -0.00056
         5308.77        -0.000555
         5310.38        -0.000549
         5311.99        -0.000544
          5313.6        -0.000538
         5315.21        -0.000533
         5316.83        -0.000528
         5318.44        -0.000523
         5320.05        -0.000518
         5321.66        -0.000513
         5323.27        -0.000508
         5324.88        -0.000503
          5326.5        -0.000499
         5328.11        -0.000494
         5329.72         -0.00049
         5331.33        -0.000485
         5332.94        -0.000481
         5334.55        -0.000476
         5336.17        -0.000472
         5337.78        -0.000468
         5339.39        -0.000464
            5341         -0.00046
         5342.61        -0.000456
         5344.23        -0.000452
         5345.84        -0.000448
         5347.45        -0.000444
         5349.06         -0.00044
         5350.67        -0.000436
         5352.28        -0.000432
          5353.9        -0.000429
         5355.51        -0.000425
         5357.12        -0.000421
         5358.73        -0.000418
         5360.34        -0.000414
         5361.95        -0.000411
         5363.57        -0.000408
         5365.18        -0.000404
         5366.79        -0.000401
          5368.4        -0.000398
         5370.01        -0.000395
         5371.62        -0.000391
         5373.24        -0.000388
         5374.85        -0.000385
         5376.46        -0.000382
         5378.07        -0.000379
         5379.68        -0.000376
         5381.29        -0.000373
         5382.91         -0.00037
         5384.52        -0.000367
         5386.13        -0.000364
         5387.74        -0.000362
         5389.35        -0.000359
         5390.97        -0.000356
         5392.58        -0.000353
         5394.19        -0.000351
          5395.8        -0.000348
         5397.41        -0.000345
         5399.02        -0.000343
         5400.64         -0.00034
         5402.25        -0.000338
         5403.86        -0.000335
         5405.47        -0.000333
         5407.08         -0.00033
         5408.69        -0.000328
         5410.31        -0.000326
         5411.92        -0.000323
         5413.53        -0.000321
         5415.14        -0.000319
         5416.75        -0.000316
         5418.36        -0.000314
         5419.98        -0.000312
         5421.59         -0.00031
          5423.2        -0.000307
         5424.81        -0.000305
         5426.42        -0.000303
         5428.03        -0.000301
         5429.65        -0.000299
         5431.26        -0.000297
         5432.87        -0.000295
         5434.48        -0.000293
         5436.09        -0.000291
         5437.71        -0.000289
         5439.32        -0.000287
         5440.93        -0.000285
         5442.54        -0.000283
         5444.15        -0.000281
         5445.76        -0.000279
         5447.38        -0.000277
         5448.99        -0.000275
          5450.6        -0.000274
         5452.21        -0.000272
         5453.82         -0.00027
         5455.43        -0.000268
         5457.05        -0.000266
         5458.66        -0.000265
         5460.27        -0.000263
         5461.88        -0.000261
         5463.49        -0.000259
          5465.1        -0.000258
         5466.72        -0.000256
         5468.33        -0.000254
         5469.94        -0.000253
         5471.55        -0.000251
         5473.16         -0.00025
         5474.77        -0.000248
         5476.39        -0.000246
            5478        -0.000245
         5479.61        -0.000243
         5481.22        -0.000242
         5482.83         -0.00024
         5484.44        -0.000239
         5486.06        -0.000237
         5487.67        -0.000236
         5489.28        -0.000234
         5490.89        -0.000233
          5492.5        -0.000231
         5494.12         -0.00023
         5495.73        -0.000229
         5497.34        -0.000227
         5498.95        -0.000226
         5500.56        -0.000224
         5502.17        -0.000223
         5503.79        -0.000222
          5505.4         -0.00022
         5507.01        -0.000219
         5508.62        -0.000218
         5510.23        -0.000216
         5511.84        -0.000215
         5513.46        -0.000214
         5515.07        -0.000212
         5516.68        -0.000211
         5518.29         -0.00021
          5519.9        -0.000209
         5521.51        -0.000207
         5523.13        -0.000206
         5524.74        -0.000205
         5526.35        -0.000204
         5527.96        -0.000203
         5529.57        -0.000201
         5531.18          -0.0002
          5532.8        -0.000199
         5534.41        -0.000198
         5536.02        -0.000197
         5537.63        -0.000196
         5539.24        -0.000194
         5540.86        -0.000193
         5542.47        -0.000192
         5544.08        -0.000191
         5545.69         -0.00019
          5547.3        -0.000189
         5548.91        -0.000188
         5550.53        -0.000187
         5552.14        -0.000186
         5553.75        -0.000184
         5555.36        -0.000183
         5556.97        -0.000182
         5558.58        -0.000181
          5560.2         -0.00018
         5561.81        -0.000179
         5563.42        -0.000178
         5565.03        -0.000177
         5566.64        -0.000176
         5568.25        -0.000175
         5569.87        -0.000174
         5571.48        -0.000173
         5573.09        -0.000172
          5574.7        -0.000171
         5576.31         -0.00017
         5577.92        -0.000169
         5579.54        -0.000168
         5581.15        -0.000167
         5582.76        -0.000166
         5584.37        -0.000166
         5585.98        -0.000165
          5587.6        -0.000164
         5589.21        -0.000163
         5590.82        -0.000162
         5592.43        -0.000161
         5594.04         -0.00016
         5595.65        -0.000159
         5597.27        -0.000158
         5598.88        -0.000157
         5600.49        -0.000157
          5602.1        -0.000156
         5603.71        -0.000155
         5605.32        -0.000154
         5606.94        -0.000153
         5608.55        -0.000152
         5610.16        -0.000151
         5611.77        -0.000151
         5613.38         -0.00015
         5614.99        -0.000149
         5616.61        -0.000148
         5618.22        -0.000147
         5619.83        -0.000146
         5621.44        -0.000146
         5623.05        -0.000145
         5624.66        -0.000144
         5626.28        -0.000143
         5627.89        -0.000142
          5629.5        -0.000142
         5631.11        -0.000141
         5632.72         -0.00014
         5634.34        -0.000139
         5635.95        -0.000139
         5637.56        -0.000138
         5639.17        -0.000137
         5640.78        -0.000136
         5642.39        -0.000135
         5644.01        -0.000135
         5645.62        -0.000134
         5647.23        -0.000133
         5648.84        -0.000133
         5650.45        -0.000132
         5652.06        -0.000131
         5653.68         -0.00013
         5655.29         -0.00013
          5656.9        -0.000129
         5658.51        -0.000128
         5660.12        -0.000128
         5661.73        -0.000127
         5663.35        -0.000126
         5664.96        -0.000125
         5666.57        -0.000125
         5668.18        -0.000124
         5669.79        -0.000123
          5671.4        -0.000123
         5673.02        -0.000122
         5674.63        -0.000121
         5676.24        -0.000121
         5677.85         -0.00012
         5679.46        -0.000119
         5681.08        -0.000119
         5682.69        -0.000118
          5684.3        -0.000117
         5685.91        -0.000117
         5687.52        -0.000116
         5689.13        -0.000115
         5690.75        -0.000115
         5692.36        -0.000114
         5693.97        -0.000113
         5695.58        -0.000113
         5697.19        -0.000112
          5698.8        -0.000112
         5700.42        -0.000111
         5702.03         -0.00011
         5703.64         -0.00011
         5705.25        -0.000109
         5706.86        -0.000109
         5708.47        -0.000108
         5710.09        -0.000107
          5711.7        -0.000107
         5713.31        -0.000106
         5714.92        -0.000106
         5716.53        -0.000105
         5718.14        -0.000104
         5719.76        -0.000104
         5721.37        -0.000103
         5722.98        -0.000103
         5724.59        -0.000102
          5726.2        -0.000101
         5727.81        -0.000101
         5729.43          -0.0001
         5731.04          -0.0001
         5732.65         -9.9e-05
         5734.26         -9.9e-05
         5735.87         -9.8e-05
         5737.49         -9.7e-05
          5739.1         -9.7e-05
         5740.71         -9.6e-05
         5742.32         -9.6e-05
         5743.93         -9.5e-05
         5745.54         -9.5e-05
         5747.16         -9.4e-05
         5748.77         -9.4e-05
         5750.38         -9.3e-05
         5751.99         -9.2e-05
          5753.6         -9.2e-05
         5755.21         -9.1e-05
         5756.83         -9.1e-05
         5758.44           -9e-05
         5760.05           -9e-05
         5761.66         -8.9e-05
         5763.27         -8.9e-05
         5764.88         -8.8e-05
          5766.5         -8.8e-05
         5768.11         -8.7e-05
         5769.72         -8.7e-05
         5771.33         -8.6e-05
         5772.94         -8.6e-05
         5774.55         -8.5e-05
         5776.17         -8.5e-05
         5777.78         -8.4e-05
         5779.39         -8.4e-05
            5781         -8.3e-05
         5782.61         -8.3e-05
         5784.23         -8.2e-05
         5785.84         -8.2e-05
         5787.45         -8.1e-05
         5789.06         -8.1e-05
         5790.67           -8e-05
         5792.28           -8e-05
          5793.9         -7.9e-05
         5795.51         -7.9e-05
         5797.12         -7.8e-05
         5798.73         -7.8e-05
         5800.34         -7.7e-05
         5801.95         -7.7e-05
         5803.57         -7.6e-05
         5805.18         -7.6e-05
         5806.79         -7.5e-05
          5808.4         -7.5e-05
         5810.01         -7.4e-05
         5811.62         -7.4e-05
         5813.24         -7.3e-05
         5814.85         -7.3e-05
         5816.46         -7.2e-05
         5818.07         -7.2e-05
         5819.68         -7.2e-05
         5821.29         -7.1e-05
         5822.91         -7.1e-05
         5824.52           -7e-05
         5826.13           -7e-05
         5827.74         -6.9e-05
         5829.35         -6.9e-05
         5830.97         -6.8e-05
         5832.58         -6.8e-05
         5834.19         -6.7e-05
          5835.8         -6.7e-05
         5837.41         -6.7e-05
         5839.02         -6.6e-05
         5840.64         -6.6e-05
         5842.25         -6.5e-05
         5843.86         -6.5e-05
         5845.47         -6.4e-05
         5847.08         -6.4e-05
         5848.69         -6.3e-05
         5850.31         -6.3e-05
         5851.92         -6.3e-05
         5853.53         -6.2e-05
         5855.14         -6.2e-05
         5856.75         -6.1e-05
         5858.36         -6.1e-05
         5859.98           -6e-05
         5861.59           -6e-05
          5863.2         -5.9e-05
         5864.81         -5.9e-05
         5866.42         -5.9e-05
         5868.03         -5.8e-05
         5869.65         -5.8e-05
         5871.26         -5.7e-05
         5872.87         -5.7e-05
         5874.48         -5.7e-05
         5876.09         -5.6e-05
         5877.71         -5.6e-05
         5879.32         -5.5e-05
         5880.93         -5.5e-05
         5882.54         -5.4e-05
         5884.15         -5.4e-05
         5885.76         -5.4e-05
         5887.38         -5.3e-05
         5888.99         -5.3e-05
          5890.6         -5.2e-05
         5892.21         -5.2e-05
         5893.82         -5.2e-05
         5895.43         -5.1e-05
         5897.05         -5.1e-05
         5898.66           -5e-05
         5900.27           -5e-05
         5901.88           -5e-05
         5903.49         -4.9e-05
          5905.1         -4.9e-05
         5906.72         -4.8e-05
         5908.33         -4.8e-05
         5909.94         -4.8e-05
         5911.55         -4.7e-05
         5913.16         -4.7e-05
         5914.77         -4.6e-05
         5916.39         -4.6e-05
            5918         -4.6e-05
         5919.61         -4.5e-05
         5921.22         -4.5e-05
         5922.83         -4.4e-05
         5924.44         -4.4e-05
         5926.06         -4.4e-05
         5927.67         -4.3e-05
         5929.28         -4.3e-05
         5930.89         -4.2e-05
          5932.5         -4.2e-05
         5934.12         -4.2e-05
         5935.73         -4.1e-05
         5937.34         -4.1e-05
         5938.95           -4e-05
         5940.56           -4e-05
         5942.17           -4e-05
         5943.79         -3.9e-05
          5945.4         -3.9e-05
         5947.01         -3.9e-05
         5948.62         -3.8e-05
         5950.23         -3.8e-05
         5951.84         -3.7e-05
         5953.46         -3.7e-05
         5955.07         -3.7e-05
         5956.68         -3.6e-05
         5958.29         -3.6e-05
          5959.9         -3.5e-05
         5961.51         -3.5e-05
         5963.13         -3.5e-05
         5964.74         -3.4e-05
         5966.35         -3.4e-05
         5967.96         -3.4e-05
         5969.57         -3.3e-05
         5971.18         -3.3e-05
          5972.8         -3.2e-05
         5974.41         -3.2e-05
         5976.02         -3.2e-05
         5977.63         -3.1e-05
         5979.24         -3.1e-05
         5980.86         -3.1e-05
         5982.47           -3e-05
         5984.08           -3e-05
         5985.69         -2.9e-05
          5987.3         -2.9e-05
         5988.91         -2.9e-05
         5990.53         -2.8e-05
         5992.14         -2.8e-05
         5993.75         -2.8e-05
         5995.36         -2.7e-05
         5996.97         -2.7e-05
         5998.58         -2.7e-05
          6000.2         -2.6e-05
         6001.81         -2.6e-05
         6003.42         -2.5e-05
         6005.03         -2.5e-05
         6006.64         -2.5e-05
         6008.25         -2.4e-05
         6009.87         -2.4e-05
         6011.48         -2.4e-05
         6013.09         -2.3e-05
          6014.7         -2.3e-05
         6016.31         -2.3e-05
         6017.92         -2.2e-05
         6019.54         -2.2e-05
         6021.15         -2.1e-05
         6022.76         -2.1e-05
         6024.37         -2.1e-05
         6025.98           -2e-05
          6027.6           -2e-05
         6029.21           -2e-05
         6030.82         -1.9e-05
         6032.43         -1.9e-05
         6034.04         -1.9e-05
         6035.65         -1.8e-05
         6037.27         -1.8e-05
         6038.88         -1.7e-05
         6040.49         -1.7e-05
          6042.1         -1.7e-05
         6043.71         -1.6e-05
         6045.32         -1.6e-05
         6046.94         -1.6e-05
         6048.55         -1.5e-05
         6050.16         -1.5e-05
         6051.77         -1.5e-05
         6053.38         -1.4e-05
         6054.99         -1.4e-05
         6056.61         -1.4e-05
         6058.22         -1.3e-05
         6059.83         -1.3e-05
         6061.44         -1.2e-05
         6063.05         -1.2e-05
         6064.66         -1.2e-05
         6066.28         -1.1e-05
         6067.89         -1.1e-05
          6069.5         -1.1e-05
         6071.11           -1e-05
         6072.72           -1e-05
         6074.34           -1e-05
         6075.95           -9e-06
         6077.56           -9e-06
         6079.17           -9e-06
         6080.78           -8e-06
         6082.39           -8e-06
         6084.01           -7e-06
         6085.62           -7e-06
         6087.23           -7e-06
         6088.84           -6e-06
         6090.45           -6e-06
         6092.06           -6e-06
         6093.68           -5e-06
         6095.29           -5e-06
          6096.9           -5e-06
         6098.51           -4e-06
         6100.12           -4e-06
         6101.73           -4e-06
         6103.35           -3e-06
         6104.96           -3e-06
         6106.57           -3e-06
         6108.18           -2e-06
         6109.79           -2e-06
          6111.4           -1e-06
         6113.02           -1e-06
         6114.63           -1e-06
         6116.24               -0
         6117.85               -0
         6119.46                0
         6121.08            1e-06
         6122.69            1e-06
          6124.3            1e-06
         6125.91            2e-06
         6127.52            2e-06
         6129.13            2e-06
         6130.75            3e-06
         6132.36            3e-06
         6133.97            4e-06
         6135.58            4e-06
         6137.19            4e-06
          6138.8            5e-06
         6140.42            5e-06
         6142.03            5e-06
         6143.64            6e-06
         6145.25            6e-06
         6146.86            6e-06
         6148.47            7e-06
         6150.09            7e-06
          6151.7            8e-06
         6153.31            8e-06
         6154.92            8e-06
         6156.53            9e-06
         6158.14            9e-06
         6159.76            9e-06
         6161.37            1e-05
         6162.98            1e-05
         6164.59            1e-05
          6166.2          1.1e-05
         6167.81          1.1e-05
         6169.43          1.1e-05
         6171.04          1.2e-05
         6172.65          1.2e-05
         6174.26          1.3e-05
         6175.87          1.3e-05
         6177.49          1.3e-05
          6179.1          1.4e-05
         6180.71          1.4e-05
         6182.32          1.4e-05
         6183.93          1.5e-05
         6185.54          1.5e-05
         6187.16          1.6e-05
         6188.77          1.6e-05
         6190.38          1.6e-05
         6191.99          1.7e-05
          6193.6          1.7e-05
         6195.21          1.7e-05
         6196.83          1.8e-05
         6198.44          1.8e-05
         6200.05          1.8e-05
         6201.66          1.9e-05
         6203.27          1.9e-05
         6204.88            2e-05
          6206.5            2e-05
         6208.11            2e-05
         6209.72          2.1e-05
         6211.33          2.1e-05
         6212.94          2.1e-05
         6214.55          2.2e-05
         6216.17          2.2e-05
         6217.78          2.3e-05
         6219.39          2.3e-05
            6221          2.3e-05
         6222.61          2.4e-05
         6224.23          2.4e-05
         6225.84          2.4e-05
         6227.45          2.5e-05
         6229.06          2.5e-05
         6230.67          2.6e-05
         6232.28          2.6e-05
          6233.9          2.6e-05
         6235.51          2.7e-05
         6237.12          2.7e-05
         6238.73          2.8e-05
         6240.34          2.8e-05
         6241.95          2.8e-05
         6243.57          2.9e-05
         6245.18          2.9e-05
         6246.79          2.9e-05
          6248.4            3e-05
         6250.01            3e-05
         6251.62          3.1e-05
         6253.24          3.1e-05
         6254.85          3.1e-05
         6256.46          3.2e-05
         6258.07          3.2e-05
         6259.68          3.3e-05
         6261.29          3.3e-05
         6262.91          3.3e-05
         6264.52          3.4e-05
         6266.13          3.4e-05
         6267.74          3.5e-05
         6269.35          3.5e-05
         6270.97          3.5e-05
         6272.58          3.6e-05
         6274.19          3.6e-05
          6275.8          3.7e-05
         6277.41          3.7e-05
         6279.02          3.7e-05
         6280.64          3.8e-05
         6282.25          3.8e-05
         6283.86          3.9e-05
         6285.47          3.9e-05
         6287.08          3.9e-05
         6288.69            4e-05
         6290.31            4e-05
         6291.92          4.1e-05
         6293.53          4.1e-05
         6295.14          4.1e-05
         6296.75          4.2e-05
         6298.36          4.2e-05
         6299.98          4.3e-05
         6301.59          4.3e-05
          6303.2          4.4e-05
         6304.81          4.4e-05
         6306.42          4.4e-05
         6308.03          4.5e-05
         6309.65          4.5e-05
         6311.26          4.6e-05
         6312.87          4.6e-05
         6314.48          4.6e-05
         6316.09          4.7e-05
         6317.71          4.7e-05
         6319.32          4.8e-05
         6320.93          4.8e-05
         6322.54          4.9e-05
         6324.15          4.9e-05
         6325.76          4.9e-05
         6327.38            5e-05
         6328.99            5e-05
          6330.6          5.1e-05
         6332.21          5.1e-05
         6333.82          5.2e-05
         6335.43          5.2e-05
         6337.05          5.3e-05
         6338.66          5.3e-05
         6340.27          5.3e-05
         6341.88          5.4e-05
         6343.49          5.4e-05
          6345.1          5.5e-05
         6346.72          5.5e-05
         6348.33          5.6e-05
         6349.94          5.6e-05
         6351.55          5.7e-05
         6353.16          5.7e-05
         6354.77          5.7e-05
         6356.39          5.8e-05
            6358          5.8e-05
         6359.61          5.9e-05
         6361.22          5.9e-05
         6362.83            6e-05
         6364.44            6e-05
         6366.06          6.1e-05
         6367.67          6.1e-05
         6369.28          6.2e-05
         6370.89          6.2e-05
          6372.5          6.3e-05
         6374.12          6.3e-05
         6375.73          6.3e-05
         6377.34          6.4e-05
         6378.95          6.4e-05
         6380.56          6.5e-05
         6382.17          6.5e-05
         6383.79          6.6e-05
          6385.4          6.6e-05
         6387.01          6.7e-05
         6388.62          6.7e-05
         6390.23          6.8e-05
         6391.84          6.8e-05
         6393.46          6.9e-05
         6395.07          6.9e-05
         6396.68            7e-05
         6398.29            7e-05
          6399.9          7.1e-05
         6401.51          7.1e-05
         6403.13          7.2e-05
         6404.74          7.2e-05
         6406.35          7.3e-05
         6407.96          7.3e-05
         6409.57          7.4e-05
         6411.18          7.4e-05
          6412.8          7.5e-05
         6414.41          7.5e-05
         6416.02          7.6e-05
         6417.63          7.6e-05
         6419.24          7.7e-05
         6420.86          7.7e-05
         6422.47          7.8e-05
         6424.08          7.8e-05
         6425.69          7.9e-05
          6427.3          7.9e-05
         6428.91            8e-05
         6430.53          8.1e-05
         6432.14          8.1e-05
         6433.75          8.2e-05
         6435.36          8.2e-05
         6436.97          8.3e-05
         6438.58          8.3e-05
          6440.2          8.4e-05
         6441.81          8.4e-05
         6443.42          8.5e-05
         6445.03          8.5e-05
         6446.64          8.6e-05
         6448.25          8.7e-05
         6449.87          8.7e-05
         6451.48          8.8e-05
         6453.09          8.8e-05
          6454.7          8.9e-05
         6456.31          8.9e-05
         6457.92            9e-05
         6459.54          9.1e-05
         6461.15          9.1e-05
         6462.76          9.2e-05
         6464.37          9.2e-05
         6465.98          9.3e-05
          6467.6          9.3e-05
         6469.21          9.4e-05
         6470.82          9.5e-05
         6472.43          9.5e-05
         6474.04          9.6e-05
         6475.65          9.6e-05
         6477.27          9.7e-05
         6478.88          9.8e-05
         6480.49          9.8e-05
          6482.1          9.9e-05
         6483.71          9.9e-05
         6485.32           0.0001
         6486.94         0.000101
         6488.55         0.000101
         6490.16         0.000102
         6491.77         0.000103
         6493.38         0.000103
         6494.99         0.000104
         6496.61         0.000104
         6498.22         0.000105
         6499.83         0.000106
         6501.44         0.000106
         6503.05         0.000107
         6504.66         0.000108
         6506.28         0.000108
         6507.89         0.000109
          6509.5          0.00011
         6511.11          0.00011
         6512.72         0.000111
         6514.34         0.000112
         6515.95         0.000112
         6517.56         0.000113
         6519.17         0.000114
         6520.78         0.000114
         6522.39         0.000115
         6524.01         0.000116
         6525.62         0.000116
         6527.23         0.000117
         6528.84         0.000118
         6530.45         0.000118
         6532.06         0.000119
         6533.68          0.00012
         6535.29         0.000121
          6536.9         0.000121
         6538.51         0.000122
         6540.12         0.000123
         6541.73         0.000124
         6543.35         0.000124
         6544.96         0.000125
         6546.57         0.000126
         6548.18         0.000126
         6549.79         0.000127
          6551.4         0.000128
         6553.02         0.000129
         6554.63         0.000129
         6556.24          0.00013
         6557.85         0.000131
         6559.46         0.000132
         6561.08         0.000133
         6562.69         0.000133
          6564.3         0.000134
         6565.91         0.000135
         6567.52         0.000136
         6569.13         0.000136
         6570.75         0.000137
         6572.36         0.000138
         6573.97         0.000139
         6575.58          0.00014
         6577.19         0.000141
          6578.8         0.000141
         6580.42         0.000142
         6582.03         0.000143
         6583.64         0.000144
         6585.25         0.000145
         6586.86         0.000146
         6588.47         0.000146
         6590.09         0.000147
          6591.7         0.000148
         6593.31         0.000149
         6594.92          0.00015
         6596.53         0.000151
         6598.14         0.000152
         6599.76         0.000153
         6601.37         0.000153
         6602.98         0.000154
         6604.59         0.000155
          6606.2         0.000156
         6607.81         0.000157
         6609.43         0.000158
         6611.04         0.000159
         6612.65          0.00016
         6614.26         0.000161
         6615.87         0.000162
         6617.49         0.000163
          6619.1         0.000164
         6620.71         0.000165
         6622.32         0.000166
&
